E_lab	E*/MeV	197At	198At	199At	200At	201At	202At	203At	204At	205At
164.401	45.0	0.000E+00	0.000E+00	0.000E+00	0.620E-11	0.925E-06	0.143E-06	0.159E-09	0.000E+00	0.000E+00
165.643	46.0	0.000E+00	0.000E+00	0.000E+00	0.400E-09	0.316E-05	0.306E-06	0.284E-09	0.000E+00	0.000E+00
166.886	47.0	0.000E+00	0.000E+00	0.000E+00	0.418E-07	0.908E-03	0.242E-03	0.167E-05	0.000E+00	0.000E+00
168.128	48.0	0.000E+00	0.000E+00	0.000E+00	0.141E-05	0.422E-02	0.871E-03	0.695E-05	0.000E+00	0.000E+00
169.371	49.0	0.000E+00	0.000E+00	0.000E+00	0.263E-04	0.150E-01	0.222E-02	0.173E-04	0.000E+00	0.000E+00
170.613	50.0	0.000E+00	0.000E+00	0.000E+00	0.332E-03	0.499E-01	0.515E-02	0.361E-04	0.000E+00	0.000E+00
171.856	51.0	0.000E+00	0.000E+00	0.000E+00	0.303E-02	0.161E+00	0.115E-01	0.712E-04	0.000E+00	0.000E+00
173.098	52.0	0.000E+00	0.000E+00	0.000E+00	0.209E-01	0.489E+00	0.248E-01	0.135E-03	0.000E+00	0.000E+00
174.340	53.0	0.000E+00	0.000E+00	0.000E+00	0.109E+00	0.134E+01	0.495E-01	0.246E-03	0.000E+00	0.000E+00
175.583	54.0	0.000E+00	0.000E+00	0.000E+00	0.405E+00	0.299E+01	0.852E-01	0.402E-03	0.000E+00	0.000E+00
176.825	55.0	0.000E+00	0.000E+00	0.434E-05	0.101E+01	0.501E+01	0.118E+00	0.553E-03	0.000E+00	0.000E+00
178.068	56.0	0.000E+00	0.000E+00	0.585E-04	0.180E+01	0.641E+01	0.131E+00	0.628E-03	0.000E+00	0.000E+00
179.310	57.0	0.000E+00	0.000E+00	0.455E-03	0.256E+01	0.678E+01	0.123E+00	0.596E-03	0.000E+00	0.000E+00
180.552	58.0	0.000E+00	0.000E+00	0.234E-02	0.317E+01	0.632E+01	0.103E+00	0.487E-03	0.000E+00	0.000E+00
181.795	59.0	0.000E+00	0.000E+00	0.878E-02	0.362E+01	0.541E+01	0.781E-01	0.350E-03	0.000E+00	0.000E+00
183.037	60.0	0.000E+00	0.000E+00	0.255E-01	0.391E+01	0.436E+01	0.552E-01	0.229E-03	0.000E+00	0.000E+00
184.280	61.0	0.000E+00	0.000E+00	0.601E-01	0.406E+01	0.338E+01	0.369E-01	0.140E-03	0.000E+00	0.000E+00
185.522	62.0	0.000E+00	0.000E+00	0.120E+00	0.408E+01	0.254E+01	0.238E-01	0.809E-04	0.000E+00	0.000E+00
186.765	63.0	0.000E+00	0.000E+00	0.211E+00	0.399E+01	0.187E+01	0.150E-01	0.448E-04	0.000E+00	0.000E+00
188.007	64.0	0.000E+00	0.000E+00	0.333E+00	0.379E+01	0.136E+01	0.934E-02	0.231E-04	0.000E+00	0.000E+00
189.249	65.0	0.000E+00	0.000E+00	0.482E+00	0.351E+01	0.973E+00	0.576E-02	0.111E-04	0.000E+00	0.000E+00
190.492	66.0	0.000E+00	0.328E-06	0.649E+00	0.316E+01	0.688E+00	0.353E-02	0.356E-05	0.000E+00	0.000E+00
191.734	67.0	0.000E+00	0.301E-05	0.823E+00	0.279E+01	0.482E+00	0.216E-02	0.000E+00	0.000E+00	0.000E+00
192.977	68.0	0.000E+00	0.191E-04	0.994E+00	0.241E+01	0.335E+00	0.131E-02	0.000E+00	0.000E+00	0.000E+00
194.219	69.0	0.000E+00	0.891E-04	0.115E+01	0.203E+01	0.231E+00	0.797E-03	0.000E+00	0.000E+00	0.000E+00
195.462	70.0	0.000E+00	0.323E-03	0.128E+01	0.168E+01	0.158E+00	0.481E-03	0.000E+00	0.000E+00	0.000E+00
196.704	71.0	0.000E+00	0.946E-03	0.138E+01	0.137E+01	0.107E+00	0.290E-03	0.000E+00	0.000E+00	0.000E+00
197.946	72.0	0.000E+00	0.232E-02	0.144E+01	0.109E+01	0.726E-01	0.173E-03	0.000E+00	0.000E+00	0.000E+00
199.189	73.0	0.000E+00	0.489E-02	0.146E+01	0.863E+00	0.488E-01	0.103E-03	0.000E+00	0.000E+00	0.000E+00
200.431	74.0	0.000E+00	0.914E-02	0.145E+01	0.671E+00	0.327E-01	0.611E-04	0.000E+00	0.000E+00	0.000E+00
201.674	75.0	0.000E+00	0.155E-01	0.140E+01	0.515E+00	0.218E-01	0.358E-04	0.000E+00	0.000E+00	0.000E+00
202.916	76.0	0.000E+00	0.241E-01	0.132E+01	0.391E+00	0.145E-01	0.206E-04	0.000E+00	0.000E+00	0.000E+00
204.159	77.0	0.282E-06	0.350E-01	0.121E+01	0.293E+00	0.958E-02	0.116E-04	0.000E+00	0.000E+00	0.000E+00
205.401	78.0	0.162E-05	0.479E-01	0.109E+01	0.218E+00	0.631E-02	0.581E-05	0.000E+00	0.000E+00	0.000E+00
206.643	79.0	0.723E-05	0.623E-01	0.968E+00	0.161E+00	0.415E-02	0.238E-05	0.000E+00	0.000E+00	0.000E+00
207.886	80.0	0.260E-04	0.778E-01	0.842E+00	0.118E+00	0.272E-02	0.000E+00	0.000E+00	0.000E+00	0.000E+00
209.128	81.0	0.781E-04	0.934E-01	0.720E+00	0.855E-01	0.177E-02	0.000E+00	0.000E+00	0.000E+00	0.000E+00
210.371	82.0	0.200E-03	0.108E+00	0.606E+00	0.617E-01	0.115E-02	0.000E+00	0.000E+00	0.000E+00	0.000E+00
211.613	83.0	0.451E-03	0.122E+00	0.504E+00	0.442E-01	0.748E-03	0.000E+00	0.000E+00	0.000E+00	0.000E+00
212.856	84.0	0.906E-03	0.133E+00	0.413E+00	0.315E-01	0.483E-03	0.000E+00	0.000E+00	0.000E+00	0.000E+00
214.098	85.0	0.166E-02	0.142E+00	0.334E+00	0.224E-01	0.311E-03	0.000E+00	0.000E+00	0.000E+00	0.000E+00
215.340	86.0	0.279E-02	0.147E+00	0.267E+00	0.158E-01	0.199E-03	0.000E+00	0.000E+00	0.000E+00	0.000E+00
216.583	87.0	0.439E-02	0.149E+00	0.212E+00	0.111E-01	0.127E-03	0.000E+00	0.000E+00	0.000E+00	0.000E+00
217.825	88.0	0.649E-02	0.148E+00	0.166E+00	0.777E-02	0.807E-04	0.000E+00	0.000E+00	0.000E+00	0.000E+00
219.068	89.0	0.910E-02	0.143E+00	0.129E+00	0.542E-02	0.511E-04	0.000E+00	0.000E+00	0.000E+00	0.000E+00
220.310	90.0	0.122E-01	0.136E+00	0.997E-01	0.376E-02	0.319E-04	0.000E+00	0.000E+00	0.000E+00	0.000E+00
