E_lab	E*/MeV	193Bi	194Bi	195Bi	196Bi	197Bi	198Bi	199Bi	200Bi	201Bi	202Bi	203Bi
145.765	30.0	0.000E+00	0.000E+00	0.000E+00	0.000E+00	0.000E+00	0.000E+00	0.284E-09	0.706E-08	0.655E-09	0.153E-11	0.773E-10
147.007	31.0	0.000E+00	0.000E+00	0.000E+00	0.000E+00	0.000E+00	0.000E+00	0.370E-08	0.447E-07	0.258E-08	0.257E-10	0.520E-09
148.249	32.0	0.000E+00	0.000E+00	0.000E+00	0.000E+00	0.000E+00	0.000E+00	0.414E-07	0.263E-06	0.961E-08	0.349E-09	0.327E-08
149.492	33.0	0.000E+00	0.000E+00	0.000E+00	0.000E+00	0.000E+00	0.000E+00	0.406E-06	0.143E-05	0.339E-07	0.396E-08	0.192E-07
150.734	34.0	0.000E+00	0.000E+00	0.000E+00	0.000E+00	0.000E+00	0.000E+00	0.347E-05	0.699E-05	0.114E-06	0.377E-07	0.103E-06
151.977	35.0	0.000E+00	0.000E+00	0.000E+00	0.000E+00	0.000E+00	0.000E+00	0.244E-04	0.295E-04	0.357E-06	0.289E-06	0.478E-06
153.219	36.0	0.000E+00	0.000E+00	0.000E+00	0.000E+00	0.000E+00	0.234E-08	0.127E-03	0.971E-04	0.976E-06	0.160E-05	0.173E-05
154.462	37.0	0.000E+00	0.000E+00	0.000E+00	0.000E+00	0.000E+00	0.817E-07	0.467E-03	0.238E-03	0.227E-05	0.617E-05	0.458E-05
155.704	38.0	0.000E+00	0.000E+00	0.000E+00	0.000E+00	0.000E+00	0.104E-05	0.129E-02	0.460E-03	0.450E-05	0.179E-04	0.938E-05
156.946	39.0	0.000E+00	0.000E+00	0.000E+00	0.000E+00	0.000E+00	0.734E-05	0.296E-02	0.750E-03	0.804E-05	0.425E-04	0.161E-04
158.189	40.0	0.000E+00	0.000E+00	0.000E+00	0.000E+00	0.000E+00	0.367E-04	0.600E-02	0.109E-02	0.142E-04	0.892E-04	0.245E-04
159.431	41.0	0.000E+00	0.000E+00	0.000E+00	0.000E+00	0.000E+00	0.148E-03	0.111E-01	0.144E-02	0.269E-04	0.170E-03	0.340E-04
160.674	42.0	0.000E+00	0.000E+00	0.000E+00	0.000E+00	0.000E+00	0.504E-03	0.190E-01	0.178E-02	0.573E-04	0.298E-03	0.441E-04
161.916	43.0	0.000E+00	0.000E+00	0.000E+00	0.000E+00	0.000E+00	0.149E-02	0.305E-01	0.208E-02	0.129E-03	0.480E-03	0.538E-04
163.159	44.0	0.000E+00	0.000E+00	0.000E+00	0.000E+00	0.559E-08	0.392E-02	0.457E-01	0.229E-02	0.286E-03	0.716E-03	0.622E-04
164.401	45.0	0.000E+00	0.000E+00	0.000E+00	0.000E+00	0.290E-06	0.920E-02	0.645E-01	0.242E-02	0.597E-03	0.997E-03	0.688E-04
165.643	46.0	0.000E+00	0.000E+00	0.000E+00	0.000E+00	0.303E-05	0.195E-01	0.860E-01	0.244E-02	0.116E-02	0.130E-02	0.732E-04
166.886	47.0	0.000E+00	0.000E+00	0.000E+00	0.000E+00	0.206E-04	0.375E-01	0.109E+00	0.237E-02	0.209E-02	0.161E-02	0.752E-04
168.128	48.0	0.000E+00	0.000E+00	0.000E+00	0.000E+00	0.103E-03	0.663E-01	0.131E+00	0.223E-02	0.353E-02	0.188E-02	0.750E-04
169.371	49.0	0.000E+00	0.000E+00	0.000E+00	0.000E+00	0.404E-03	0.109E+00	0.152E+00	0.204E-02	0.560E-02	0.211E-02	0.727E-04
170.613	50.0	0.000E+00	0.000E+00	0.000E+00	0.000E+00	0.133E-02	0.167E+00	0.168E+00	0.183E-02	0.842E-02	0.226E-02	0.686E-04
171.856	51.0	0.000E+00	0.000E+00	0.000E+00	0.000E+00	0.383E-02	0.243E+00	0.180E+00	0.169E-02	0.121E-01	0.233E-02	0.633E-04
173.098	52.0	0.000E+00	0.000E+00	0.000E+00	0.000E+00	0.977E-02	0.334E+00	0.186E+00	0.172E-02	0.165E-01	0.231E-02	0.572E-04
174.340	53.0	0.000E+00	0.000E+00	0.000E+00	0.000E+00	0.225E-01	0.438E+00	0.187E+00	0.210E-02	0.218E-01	0.223E-02	0.505E-04
175.583	54.0	0.000E+00	0.000E+00	0.000E+00	0.000E+00	0.469E-01	0.548E+00	0.182E+00	0.309E-02	0.276E-01	0.209E-02	0.438E-04
176.825	55.0	0.000E+00	0.000E+00	0.000E+00	0.980E-07	0.890E-01	0.656E+00	0.173E+00	0.501E-02	0.336E-01	0.191E-02	0.372E-04
178.068	56.0	0.000E+00	0.000E+00	0.000E+00	0.217E-05	0.155E+00	0.752E+00	0.160E+00	0.824E-02	0.394E-01	0.170E-02	0.310E-04
179.310	57.0	0.000E+00	0.000E+00	0.000E+00	0.128E-04	0.250E+00	0.827E+00	0.144E+00	0.131E-01	0.446E-01	0.148E-02	0.253E-04
180.552	58.0	0.000E+00	0.000E+00	0.000E+00	0.578E-04	0.375E+00	0.873E+00	0.126E+00	0.198E-01	0.486E-01	0.126E-02	0.203E-04
181.795	59.0	0.000E+00	0.000E+00	0.000E+00	0.212E-03	0.528E+00	0.887E+00	0.109E+00	0.284E-01	0.512E-01	0.105E-02	0.160E-04
183.037	60.0	0.000E+00	0.000E+00	0.000E+00	0.661E-03	0.705E+00	0.871E+00	0.916E-01	0.387E-01	0.522E-01	0.862E-03	0.124E-04
184.280	61.0	0.000E+00	0.000E+00	0.000E+00	0.182E-02	0.896E+00	0.827E+00	0.762E-01	0.503E-01	0.515E-01	0.693E-03	0.940E-05
185.522	62.0	0.000E+00	0.000E+00	0.000E+00	0.452E-02	0.109E+01	0.762E+00	0.632E-01	0.626E-01	0.495E-01	0.547E-03	0.703E-05
186.765	63.0	0.000E+00	0.000E+00	0.000E+00	0.103E-01	0.128E+01	0.682E+00	0.534E-01	0.748E-01	0.464E-01	0.425E-03	0.516E-05
188.007	64.0	0.000E+00	0.000E+00	0.000E+00	0.213E-01	0.146E+01	0.596E+00	0.474E-01	0.863E-01	0.425E-01	0.325E-03	0.373E-05
189.249	65.0	0.000E+00	0.000E+00	0.236E-06	0.409E-01	0.161E+01	0.507E+00	0.455E-01	0.961E-01	0.380E-01	0.245E-03	0.266E-05
190.492	66.0	0.000E+00	0.000E+00	0.247E-05	0.726E-01	0.173E+01	0.423E+00	0.479E-01	0.104E+00	0.335E-01	0.182E-03	0.186E-05
191.734	67.0	0.000E+00	0.000E+00	0.118E-04	0.120E+00	0.181E+01	0.345E+00	0.546E-01	0.109E+00	0.289E-01	0.133E-03	0.128E-05
192.977	68.0	0.000E+00	0.000E+00	0.462E-04	0.186E+00	0.184E+01	0.276E+00	0.653E-01	0.111E+00	0.236E-01	0.961E-04	0.873E-06
194.219	69.0	0.000E+00	0.000E+00	0.155E-03	0.271E+00	0.184E+01	0.218E+00	0.794E-01	0.110E+00	0.184E-01	0.685E-04	0.585E-06
195.462	70.0	0.000E+00	0.000E+00	0.460E-03	0.374E+00	0.180E+01	0.169E+00	0.963E-01	0.107E+00	0.142E-01	0.482E-04	0.386E-06
196.704	71.0	0.000E+00	0.000E+00	0.122E-02	0.493E+00	0.172E+01	0.129E+00	0.115E+00	0.101E+00	0.106E-01	0.336E-04	0.252E-06
197.946	72.0	0.000E+00	0.000E+00	0.297E-02	0.622E+00	0.161E+01	0.980E-01	0.135E+00	0.940E-01	0.791E-02	0.231E-04	0.161E-06
199.189	73.0	0.000E+00	0.000E+00	0.660E-02	0.757E+00	0.148E+01	0.744E-01	0.155E+00	0.855E-01	0.575E-02	0.158E-04	0.101E-06
200.431	74.0	0.000E+00	0.000E+00	0.135E-01	0.889E+00	0.134E+01	0.576E-01	0.174E+00	0.759E-01	0.409E-02	0.106E-04	0.627E-07
201.674	75.0	0.000E+00	0.000E+00	0.256E-01	0.101E+01	0.119E+01	0.468E-01	0.192E+00	0.661E-01	0.294E-02	0.712E-05	0.378E-07
202.916	76.0	0.000E+00	0.000E+00	0.451E-01	0.112E+01	0.104E+01	0.413E-01	0.207E+00	0.563E-01	0.204E-02	0.473E-05	0.211E-07
204.159	77.0	0.000E+00	0.357E-06	0.744E-01	0.121E+01	0.894E+00	0.408E-01	0.219E+00	0.469E-01	0.145E-02	0.311E-05	0.109E-07
205.401	78.0	0.000E+00	0.226E-05	0.115E+00	0.127E+01	0.759E+00	0.449E-01	0.228E+00	0.368E-01	0.965E-03	0.203E-05	0.313E-08
206.643	79.0	0.000E+00	0.840E-05	0.169E+00	0.130E+01	0.636E+00	0.532E-01	0.232E+00	0.262E-01	0.656E-03	0.131E-05	0.000E+00
207.886	80.0	0.000E+00	0.275E-04	0.236E+00	0.130E+01	0.526E+00	0.653E-01	0.233E+00	0.186E-01	0.462E-03	0.839E-06	0.000E+00
209.128	81.0	0.000E+00	0.811E-04	0.316E+00	0.127E+01	0.430E+00	0.807E-01	0.230E+00	0.126E-01	0.297E-03	0.532E-06	0.000E+00
210.371	82.0	0.000E+00	0.218E-03	0.405E+00	0.122E+01	0.348E+00	0.987E-01	0.221E+00	0.845E-02	0.204E-03	0.334E-06	0.000E+00
211.613	83.0	0.000E+00	0.393E-03	0.440E+00	0.121E+01	0.340E+00	0.110E+00	0.219E+00	0.889E-02	0.126E-03	0.206E-06	0.000E+00
212.856	84.0	0.000E+00	0.900E-03	0.537E+00	0.113E+01	0.274E+00	0.129E+00	0.207E+00	0.573E-02	0.813E-04	0.124E-06	0.000E+00
214.098	85.0	0.000E+00	0.192E-02	0.636E+00	0.104E+01	0.221E+00	0.149E+00	0.192E+00	0.370E-02	0.507E-04	0.742E-07	0.000E+00
215.340	86.0	0.000E+00	0.383E-02	0.733E+00	0.945E+00	0.180E+00	0.168E+00	0.175E+00	0.226E-02	0.302E-04	0.408E-07	0.000E+00
216.583	87.0	0.989E-07	0.716E-02	0.825E+00	0.842E+00	0.150E+00	0.186E+00	0.156E+00	0.133E-02	0.170E-04	0.209E-07	0.000E+00
217.825	88.0	0.385E-06	0.876E-02	0.833E+00	0.843E+00	0.160E+00	0.187E+00	0.157E+00	0.778E-03	0.907E-05	0.509E-08	0.000E+00
219.068	89.0	0.139E-05	0.149E-01	0.914E+00	0.741E+00	0.140E+00	0.202E+00	0.119E+00	0.446E-03	0.451E-05	0.000E+00	0.000E+00
220.310	90.0	0.443E-05	0.240E-01	0.982E+00	0.642E+00	0.129E+00	0.214E+00	0.877E-01	0.249E-03	0.000E+00	0.000E+00	0.000E+00
221.552	91.0	0.128E-04	0.370E-01	0.103E+01	0.550E+00	0.126E+00	0.223E+00	0.650E-01	0.134E-03	0.000E+00	0.000E+00	0.000E+00
222.795	92.0	0.341E-04	0.544E-01	0.107E+01	0.465E+00	0.129E+00	0.228E+00	0.467E-01	0.688E-04	0.000E+00	0.000E+00	0.000E+00
224.037	93.0	0.840E-04	0.768E-01	0.109E+01	0.389E+00	0.138E+00	0.230E+00	0.377E-01	0.329E-04	0.000E+00	0.000E+00	0.000E+00
225.280	94.0	0.194E-03	0.104E+00	0.109E+01	0.322E+00	0.151E+00	0.226E+00	0.260E-01	0.161E-04	0.000E+00	0.000E+00	0.000E+00
226.522	95.0	0.419E-03	0.137E+00	0.107E+01	0.264E+00	0.168E+00	0.217E+00	0.177E-01	0.746E-05	0.000E+00	0.000E+00	0.000E+00
227.765	96.0	0.779E-03	0.170E+00	0.105E+01	0.218E+00	0.187E+00	0.202E+00	0.121E-01	0.325E-05	0.000E+00	0.000E+00	0.000E+00
229.007	97.0	0.151E-02	0.209E+00	0.100E+01	0.178E+00	0.208E+00	0.183E+00	0.811E-02	0.130E-05	0.000E+00	0.000E+00	0.000E+00
230.249	98.0	0.249E-02	0.235E+00	0.974E+00	0.166E+00	0.230E+00	0.173E+00	0.714E-02	0.107E-05	0.000E+00	0.000E+00	0.000E+00
231.492	99.0	0.431E-02	0.276E+00	0.914E+00	0.137E+00	0.248E+00	0.154E+00	0.486E-02	0.417E-06	0.000E+00	0.000E+00	0.000E+00
232.734	100.0	0.711E-02	0.317E+00	0.847E+00	0.115E+00	0.266E+00	0.131E+00	0.324E-02	0.132E-06	0.000E+00	0.000E+00	0.000E+00
233.977	101.0	0.873E-02	0.320E+00	0.837E+00	0.120E+00	0.263E+00	0.119E+00	0.197E-02	0.000E+00	0.000E+00	0.000E+00	0.000E+00
235.219	102.0	0.133E-01	0.357E+00	0.766E+00	0.106E+00	0.278E+00	0.992E-01	0.117E-02	0.000E+00	0.000E+00	0.000E+00	0.000E+00
236.462	103.0	0.196E-01	0.391E+00	0.693E+00	0.965E-01	0.291E+00	0.793E-01	0.702E-03	0.000E+00	0.000E+00	0.000E+00	0.000E+00
237.704	104.0	0.262E-01	0.418E+00	0.626E+00	0.931E-01	0.300E+00	0.510E-01	0.398E-03	0.000E+00	0.000E+00	0.000E+00	0.000E+00
238.946	105.0	0.362E-01	0.441E+00	0.555E+00	0.937E-01	0.305E+00	0.317E-01	0.233E-03	0.000E+00	0.000E+00	0.000E+00	0.000E+00
240.189	106.0	0.486E-01	0.457E+00	0.487E+00	0.981E-01	0.300E+00	0.198E-01	0.116E-03	0.000E+00	0.000E+00	0.000E+00	0.000E+00
241.431	107.0	0.633E-01	0.465E+00	0.424E+00	0.104E+00	0.289E+00	0.119E-01	0.616E-04	0.000E+00	0.000E+00	0.000E+00	0.000E+00
242.674	108.0	0.802E-01	0.467E+00	0.366E+00	0.114E+00	0.273E+00	0.697E-02	0.246E-04	0.000E+00	0.000E+00	0.000E+00	0.000E+00
243.916	109.0	0.989E-01	0.461E+00	0.314E+00	0.127E+00	0.256E+00	0.440E-02	0.994E-05	0.000E+00	0.000E+00	0.000E+00	0.000E+00
245.159	110.0	0.119E+00	0.448E+00	0.269E+00	0.140E+00	0.233E+00	0.244E-02	0.401E-05	0.000E+00	0.000E+00	0.000E+00	0.000E+00
246.401	111.0	0.140E+00	0.431E+00	0.230E+00	0.154E+00	0.213E+00	0.167E-02	0.227E-05	0.000E+00	0.000E+00	0.000E+00	0.000E+00
247.643	112.0	0.162E+00	0.408E+00	0.197E+00	0.168E+00	0.183E+00	0.784E-03	0.000E+00	0.000E+00	0.000E+00	0.000E+00	0.000E+00
248.886	113.0	0.162E+00	0.402E+00	0.201E+00	0.166E+00	0.180E+00	0.372E-03	0.000E+00	0.000E+00	0.000E+00	0.000E+00	0.000E+00
250.128	114.0	0.182E+00	0.377E+00	0.175E+00	0.178E+00	0.125E+00	0.190E-03	0.000E+00	0.000E+00	0.000E+00	0.000E+00	0.000E+00
251.371	115.0	0.201E+00	0.349E+00	0.154E+00	0.190E+00	0.105E+00	0.901E-04	0.000E+00	0.000E+00	0.000E+00	0.000E+00	0.000E+00
252.613	116.0	0.219E+00	0.321E+00	0.139E+00	0.199E+00	0.714E-01	0.426E-04	0.000E+00	0.000E+00	0.000E+00	0.000E+00	0.000E+00
253.856	117.0	0.234E+00	0.291E+00	0.128E+00	0.205E+00	0.470E-01	0.186E-04	0.000E+00	0.000E+00	0.000E+00	0.000E+00	0.000E+00
255.098	118.0	0.247E+00	0.261E+00	0.122E+00	0.206E+00	0.358E-01	0.727E-05	0.000E+00	0.000E+00	0.000E+00	0.000E+00	0.000E+00
256.340	119.0	0.257E+00	0.233E+00	0.120E+00	0.204E+00	0.257E-01	0.328E-05	0.000E+00	0.000E+00	0.000E+00	0.000E+00	0.000E+00
257.583	120.0	0.263E+00	0.205E+00	0.121E+00	0.196E+00	0.164E-01	0.971E-06	0.000E+00	0.000E+00	0.000E+00	0.000E+00	0.000E+00
258.825	121.0	0.266E+00	0.180E+00	0.125E+00	0.183E+00	0.107E-01	0.344E-06	0.000E+00	0.000E+00	0.000E+00	0.000E+00	0.000E+00
260.068	122.0	0.266E+00	0.157E+00	0.130E+00	0.165E+00	0.694E-02	0.109E-06	0.000E+00	0.000E+00	0.000E+00	0.000E+00	0.000E+00
261.310	123.0	0.263E+00	0.136E+00	0.138E+00	0.146E+00	0.490E-02	0.000E+00	0.000E+00	0.000E+00	0.000E+00	0.000E+00	0.000E+00
262.552	124.0	0.256E+00	0.118E+00	0.147E+00	0.126E+00	0.320E-02	0.000E+00	0.000E+00	0.000E+00	0.000E+00	0.000E+00	0.000E+00
263.795	125.0	0.248E+00	0.102E+00	0.156E+00	0.110E+00	0.222E-02	0.000E+00	0.000E+00	0.000E+00	0.000E+00	0.000E+00	0.000E+00
265.037	126.0	0.237E+00	0.891E-01	0.165E+00	0.891E-01	0.151E-02	0.000E+00	0.000E+00	0.000E+00	0.000E+00	0.000E+00	0.000E+00
266.280	127.0	0.233E+00	0.907E-01	0.160E+00	0.876E-01	0.107E-02	0.000E+00	0.000E+00	0.000E+00	0.000E+00	0.000E+00	0.000E+00
267.522	128.0	0.221E+00	0.801E-01	0.168E+00	0.712E-01	0.486E-03	0.000E+00	0.000E+00	0.000E+00	0.000E+00	0.000E+00	0.000E+00
268.765	129.0	0.208E+00	0.715E-01	0.174E+00	0.396E-01	0.284E-03	0.000E+00	0.000E+00	0.000E+00	0.000E+00	0.000E+00	0.000E+00
270.007	130.0	0.193E+00	0.651E-01	0.176E+00	0.232E-01	0.137E-03	0.000E+00	0.000E+00	0.000E+00	0.000E+00	0.000E+00	0.000E+00
271.249	131.0	0.178E+00	0.607E-01	0.175E+00	0.161E-01	0.669E-04	0.000E+00	0.000E+00	0.000E+00	0.000E+00	0.000E+00	0.000E+00
272.492	132.0	0.163E+00	0.580E-01	0.168E+00	0.912E-02	0.288E-04	0.000E+00	0.000E+00	0.000E+00	0.000E+00	0.000E+00	0.000E+00
273.734	133.0	0.148E+00	0.569E-01	0.164E+00	0.575E-02	0.170E-04	0.000E+00	0.000E+00	0.000E+00	0.000E+00	0.000E+00	0.000E+00
274.977	134.0	0.134E+00	0.572E-01	0.152E+00	0.331E-02	0.576E-05	0.000E+00	0.000E+00	0.000E+00	0.000E+00	0.000E+00	0.000E+00
276.219	135.0	0.120E+00	0.586E-01	0.974E-01	0.193E-02	0.141E-05	0.000E+00	0.000E+00	0.000E+00	0.000E+00	0.000E+00	0.000E+00
277.462	136.0	0.107E+00	0.609E-01	0.877E-01	0.117E-02	0.000E+00	0.000E+00	0.000E+00	0.000E+00	0.000E+00	0.000E+00	0.000E+00
278.704	137.0	0.955E-01	0.639E-01	0.775E-01	0.759E-03	0.000E+00	0.000E+00	0.000E+00	0.000E+00	0.000E+00	0.000E+00	0.000E+00
279.946	138.0	0.850E-01	0.692E-01	0.683E-01	0.510E-03	0.000E+00	0.000E+00	0.000E+00	0.000E+00	0.000E+00	0.000E+00	0.000E+00
281.189	139.0	0.855E-01	0.675E-01	0.664E-01	0.185E-03	0.000E+00	0.000E+00	0.000E+00	0.000E+00	0.000E+00	0.000E+00	0.000E+00
282.431	140.0	0.762E-01	0.708E-01	0.560E-01	0.789E-04	0.000E+00	0.000E+00	0.000E+00	0.000E+00	0.000E+00	0.000E+00	0.000E+00
