E_lab	E*/MeV	199At	200At	201At	202At	203At	204At	205At
164.401	45.0	0.000E+00	0.149E-11	0.509E-06	0.864E-07	0.117E-09	0.000E+00	0.000E+00
165.643	46.0	0.000E+00	0.999E-10	0.171E-05	0.185E-06	0.208E-09	0.000E+00	0.000E+00
166.886	47.0	0.000E+00	0.134E-07	0.464E-03	0.132E-03	0.953E-06	0.000E+00	0.000E+00
168.128	48.0	0.000E+00	0.466E-06	0.208E-02	0.455E-03	0.363E-05	0.000E+00	0.000E+00
169.371	49.0	0.000E+00	0.869E-05	0.717E-02	0.113E-02	0.843E-05	0.000E+00	0.000E+00
170.613	50.0	0.000E+00	0.109E-03	0.234E-01	0.257E-02	0.169E-04	0.000E+00	0.000E+00
171.856	51.0	0.000E+00	0.979E-03	0.732E-01	0.567E-02	0.325E-04	0.000E+00	0.000E+00
173.098	52.0	0.000E+00	0.665E-02	0.216E+00	0.120E-01	0.606E-04	0.000E+00	0.000E+00
174.340	53.0	0.000E+00	0.341E-01	0.573E+00	0.237E-01	0.107E-03	0.000E+00	0.000E+00
175.583	54.0	0.000E+00	0.124E+00	0.123E+01	0.399E-01	0.169E-03	0.000E+00	0.000E+00
176.825	55.0	0.120E-05	0.303E+00	0.196E+01	0.530E-01	0.220E-03	0.000E+00	0.000E+00
178.068	56.0	0.156E-04	0.525E+00	0.237E+01	0.562E-01	0.231E-03	0.000E+00	0.000E+00
179.310	57.0	0.117E-03	0.727E+00	0.237E+01	0.502E-01	0.201E-03	0.000E+00	0.000E+00
180.552	58.0	0.589E-03	0.883E+00	0.209E+01	0.396E-01	0.151E-03	0.000E+00	0.000E+00
181.795	59.0	0.216E-02	0.992E+00	0.170E+01	0.286E-01	0.100E-03	0.000E+00	0.000E+00
183.037	60.0	0.613E-02	0.106E+01	0.131E+01	0.193E-01	0.615E-04	0.000E+00	0.000E+00
184.280	61.0	0.142E-01	0.109E+01	0.979E+00	0.125E-01	0.355E-04	0.000E+00	0.000E+00
185.522	62.0	0.279E-01	0.108E+01	0.713E+00	0.790E-02	0.190E-04	0.000E+00	0.000E+00
186.765	63.0	0.482E-01	0.105E+01	0.511E+00	0.490E-02	0.918E-05	0.000E+00	0.000E+00
188.007	64.0	0.751E-01	0.985E+00	0.360E+00	0.301E-02	0.268E-05	0.000E+00	0.000E+00
189.249	65.0	0.107E+00	0.901E+00	0.252E+00	0.184E-02	0.000E+00	0.000E+00	0.000E+00
190.492	66.0	0.143E+00	0.803E+00	0.174E+00	0.112E-02	0.000E+00	0.000E+00	0.000E+00
191.734	67.0	0.180E+00	0.698E+00	0.119E+00	0.677E-03	0.000E+00	0.000E+00	0.000E+00
192.977	68.0	0.216E+00	0.594E+00	0.811E-01	0.408E-03	0.000E+00	0.000E+00	0.000E+00
194.219	69.0	0.248E+00	0.494E+00	0.548E-01	0.246E-03	0.000E+00	0.000E+00	0.000E+00
195.462	70.0	0.273E+00	0.404E+00	0.368E-01	0.147E-03	0.000E+00	0.000E+00	0.000E+00
196.704	71.0	0.291E+00	0.324E+00	0.246E-01	0.878E-04	0.000E+00	0.000E+00	0.000E+00
197.946	72.0	0.299E+00	0.256E+00	0.164E-01	0.519E-04	0.000E+00	0.000E+00	0.000E+00
199.189	73.0	0.299E+00	0.199E+00	0.108E-01	0.305E-04	0.000E+00	0.000E+00	0.000E+00
200.431	74.0	0.290E+00	0.153E+00	0.714E-02	0.176E-04	0.000E+00	0.000E+00	0.000E+00
201.674	75.0	0.274E+00	0.116E+00	0.469E-02	0.100E-04	0.000E+00	0.000E+00	0.000E+00
202.916	76.0	0.253E+00	0.871E-01	0.307E-02	0.564E-05	0.000E+00	0.000E+00	0.000E+00
204.159	77.0	0.228E+00	0.647E-01	0.201E-02	0.259E-05	0.000E+00	0.000E+00	0.000E+00
205.401	78.0	0.201E+00	0.477E-01	0.130E-02	0.904E-06	0.000E+00	0.000E+00	0.000E+00
206.643	79.0	0.174E+00	0.348E-01	0.845E-03	0.000E+00	0.000E+00	0.000E+00	0.000E+00
207.886	80.0	0.148E+00	0.252E-01	0.546E-03	0.000E+00	0.000E+00	0.000E+00	0.000E+00
209.128	81.0	0.124E+00	0.182E-01	0.352E-03	0.000E+00	0.000E+00	0.000E+00	0.000E+00
210.371	82.0	0.102E+00	0.130E-01	0.226E-03	0.000E+00	0.000E+00	0.000E+00	0.000E+00
211.613	83.0	0.831E-01	0.924E-02	0.144E-03	0.000E+00	0.000E+00	0.000E+00	0.000E+00
212.856	84.0	0.668E-01	0.654E-02	0.915E-04	0.000E+00	0.000E+00	0.000E+00	0.000E+00
214.098	85.0	0.530E-01	0.461E-02	0.580E-04	0.000E+00	0.000E+00	0.000E+00	0.000E+00
215.340	86.0	0.417E-01	0.323E-02	0.365E-04	0.000E+00	0.000E+00	0.000E+00	0.000E+00
216.583	87.0	0.324E-01	0.226E-02	0.228E-04	0.000E+00	0.000E+00	0.000E+00	0.000E+00
217.825	88.0	0.250E-01	0.157E-02	0.141E-04	0.000E+00	0.000E+00	0.000E+00	0.000E+00
219.068	89.0	0.192E-01	0.109E-02	0.868E-05	0.000E+00	0.000E+00	0.000E+00	0.000E+00
220.310	90.0	0.146E-01	0.751E-03	0.518E-05	0.000E+00	0.000E+00	0.000E+00	0.000E+00


E_lab	E*/MeV	198Po	199Po	200Po	201Po	202Po	203Po	204Po
164.401	45.0	0.000E+00	0.000E+00	0.346E-09	0.882E-07	0.337E-07	0.124E-10	0.000E+00
165.643	46.0	0.000E+00	0.000E+00	0.412E-08	0.330E-06	0.823E-07	0.223E-10	0.000E+00
166.886	47.0	0.000E+00	0.000E+00	0.468E-06	0.909E-04	0.468E-04	0.656E-07	0.254E-10
168.128	48.0	0.000E+00	0.000E+00	0.496E-05	0.443E-03	0.185E-03	0.259E-06	0.165E-09
169.371	49.0	0.000E+00	0.000E+00	0.411E-04	0.167E-02	0.525E-03	0.642E-06	0.420E-09
170.613	50.0	0.000E+00	0.000E+00	0.291E-03	0.592E-02	0.136E-02	0.136E-05	0.000E+00
171.856	51.0	0.000E+00	0.000E+00	0.180E-02	0.200E-01	0.338E-02	0.272E-05	0.000E+00
173.098	52.0	0.000E+00	0.000E+00	0.966E-02	0.640E-01	0.805E-02	0.517E-05	0.000E+00
174.340	53.0	0.000E+00	0.000E+00	0.433E-01	0.183E+00	0.177E-01	0.934E-05	0.000E+00
175.583	54.0	0.000E+00	0.893E-06	0.147E+00	0.425E+00	0.335E-01	0.152E-04	0.000E+00
176.825	55.0	0.000E+00	0.983E-05	0.353E+00	0.740E+00	0.507E-01	0.213E-04	0.000E+00
178.068	56.0	0.000E+00	0.647E-04	0.628E+00	0.989E+00	0.620E-01	0.256E-04	0.000E+00
179.310	57.0	0.000E+00	0.296E-03	0.910E+00	0.110E+01	0.648E-01	0.271E-04	0.000E+00
180.552	58.0	0.000E+00	0.105E-02	0.116E+01	0.108E+01	0.602E-01	0.258E-04	0.000E+00
181.795	59.0	0.000E+00	0.305E-02	0.138E+01	0.985E+00	0.509E-01	0.224E-04	0.000E+00
183.037	60.0	0.000E+00	0.761E-02	0.154E+01	0.846E+00	0.399E-01	0.179E-04	0.000E+00
184.280	61.0	0.000E+00	0.167E-01	0.167E+01	0.697E+00	0.294E-01	0.132E-04	0.000E+00
185.522	62.0	0.000E+00	0.326E-01	0.175E+01	0.555E+00	0.207E-01	0.908E-05	0.000E+00
186.765	63.0	0.291E-06	0.578E-01	0.178E+01	0.432E+00	0.141E-01	0.580E-05	0.000E+00
188.007	64.0	0.186E-05	0.942E-01	0.178E+01	0.329E+00	0.942E-02	0.349E-05	0.000E+00
189.249	65.0	0.937E-05	0.142E+00	0.174E+01	0.247E+00	0.619E-02	0.195E-05	0.000E+00
190.492	66.0	0.389E-04	0.202E+00	0.166E+01	0.183E+00	0.402E-02	0.101E-05	0.000E+00
191.734	67.0	0.137E-03	0.270E+00	0.155E+01	0.133E+00	0.260E-02	0.428E-06	0.000E+00
192.977	68.0	0.415E-03	0.343E+00	0.142E+01	0.963E-01	0.167E-02	0.122E-07	0.000E+00
194.219	69.0	0.111E-02	0.418E+00	0.127E+01	0.689E-01	0.106E-02	0.000E+00	0.000E+00
195.462	70.0	0.262E-02	0.491E+00	0.112E+01	0.488E-01	0.675E-03	0.000E+00	0.000E+00
196.704	71.0	0.560E-02	0.556E+00	0.968E+00	0.342E-01	0.427E-03	0.000E+00	0.000E+00
197.946	72.0	0.109E-01	0.612E+00	0.822E+00	0.239E-01	0.268E-03	0.000E+00	0.000E+00
199.189	73.0	0.194E-01	0.654E+00	0.687E+00	0.165E-01	0.168E-03	0.000E+00	0.000E+00
200.431	74.0	0.320E-01	0.682E+00	0.565E+00	0.113E-01	0.105E-03	0.000E+00	0.000E+00
201.674	75.0	0.495E-01	0.694E+00	0.458E+00	0.775E-02	0.650E-04	0.000E+00	0.000E+00
202.916	76.0	0.721E-01	0.691E+00	0.366E+00	0.527E-02	0.402E-04	0.000E+00	0.000E+00
204.159	77.0	0.997E-01	0.673E+00	0.289E+00	0.356E-02	0.247E-04	0.000E+00	0.000E+00
205.401	78.0	0.131E+00	0.642E+00	0.226E+00	0.239E-02	0.151E-04	0.000E+00	0.000E+00
206.643	79.0	0.166E+00	0.601E+00	0.174E+00	0.160E-02	0.910E-05	0.000E+00	0.000E+00
207.886	80.0	0.203E+00	0.552E+00	0.133E+00	0.107E-02	0.544E-05	0.000E+00	0.000E+00
209.128	81.0	0.239E+00	0.498E+00	0.101E+00	0.707E-03	0.321E-05	0.000E+00	0.000E+00
210.371	82.0	0.273E+00	0.442E+00	0.759E-01	0.467E-03	0.174E-05	0.000E+00	0.000E+00
211.613	83.0	0.304E+00	0.386E+00	0.566E-01	0.307E-03	0.855E-06	0.000E+00	0.000E+00
212.856	84.0	0.329E+00	0.332E+00	0.418E-01	0.201E-03	0.295E-06	0.000E+00	0.000E+00
214.098	85.0	0.349E+00	0.282E+00	0.308E-01	0.131E-03	0.000E+00	0.000E+00	0.000E+00
215.340	86.0	0.362E+00	0.237E+00	0.225E-01	0.850E-04	0.000E+00	0.000E+00	0.000E+00
216.583	87.0	0.367E+00	0.196E+00	0.163E-01	0.549E-04	0.000E+00	0.000E+00	0.000E+00
217.825	88.0	0.365E+00	0.160E+00	0.118E-01	0.353E-04	0.000E+00	0.000E+00	0.000E+00
219.068	89.0	0.357E+00	0.130E+00	0.845E-02	0.226E-04	0.000E+00	0.000E+00	0.000E+00
220.310	90.0	0.343E+00	0.104E+00	0.603E-02	0.143E-04	0.000E+00	0.000E+00	0.000E+00


E_lab	E*/MeV	197Bi	198Bi	199Bi	200Bi	201Bi	202Bi	203Bi
164.401	45.0	0.607E-11	0.755E-08	0.144E-07	0.178E-10	0.378E-09	0.234E-09	0.143E-11
165.643	46.0	0.923E-10	0.359E-07	0.413E-07	0.363E-10	0.171E-08	0.648E-09	0.281E-11
166.886	47.0	0.673E-08	0.109E-04	0.159E-04	0.565E-07	0.625E-06	0.299E-06	0.320E-08
168.128	48.0	0.987E-07	0.614E-04	0.691E-04	0.216E-06	0.339E-05	0.119E-05	0.124E-07
169.371	49.0	0.103E-05	0.269E-03	0.213E-03	0.585E-06	0.143E-04	0.353E-05	0.328E-07
170.613	50.0	0.922E-05	0.108E-02	0.596E-03	0.165E-05	0.567E-04	0.955E-05	0.758E-07
171.856	51.0	0.727E-04	0.412E-02	0.159E-02	0.632E-05	0.215E-03	0.247E-04	0.167E-06
173.098	52.0	0.503E-03	0.147E-01	0.403E-02	0.319E-04	0.773E-03	0.605E-04	0.351E-06
174.340	53.0	0.291E-02	0.469E-01	0.940E-02	0.165E-03	0.250E-02	0.136E-03	0.700E-06
175.583	54.0	0.126E-01	0.121E+00	0.188E-01	0.682E-03	0.656E-02	0.257E-03	0.126E-05
176.825	55.0	0.381E-01	0.235E+00	0.300E-01	0.199E-02	0.129E-01	0.387E-03	0.193E-05
178.068	56.0	0.831E-01	0.353E+00	0.393E-01	0.425E-02	0.195E-01	0.475E-03	0.256E-05
179.310	57.0	0.144E+00	0.441E+00	0.446E-01	0.732E-02	0.244E-01	0.508E-03	0.304E-05
180.552	58.0	0.217E+00	0.488E+00	0.459E-01	0.110E-01	0.274E-01	0.495E-03	0.330E-05
181.795	59.0	0.294E+00	0.497E+00	0.439E-01	0.152E-01	0.284E-01	0.451E-03	0.333E-05
183.037	60.0	0.372E+00	0.474E+00	0.393E-01	0.196E-01	0.280E-01	0.391E-03	0.316E-05
184.280	61.0	0.447E+00	0.430E+00	0.334E-01	0.243E-01	0.265E-01	0.325E-03	0.283E-05
185.522	62.0	0.516E+00	0.375E+00	0.272E-01	0.289E-01	0.243E-01	0.261E-03	0.240E-05
186.765	63.0	0.575E+00	0.317E+00	0.219E-01	0.331E-01	0.218E-01	0.202E-03	0.191E-05
188.007	64.0	0.623E+00	0.260E+00	0.181E-01	0.369E-01	0.191E-01	0.152E-03	0.144E-05
189.249	65.0	0.658E+00	0.209E+00	0.162E-01	0.399E-01	0.164E-01	0.111E-03	0.103E-05
190.492	66.0	0.679E+00	0.165E+00	0.161E-01	0.420E-01	0.139E-01	0.794E-04	0.702E-06
191.734	67.0	0.686E+00	0.128E+00	0.177E-01	0.430E-01	0.115E-01	0.557E-04	0.461E-06
192.977	68.0	0.678E+00	0.974E-01	0.208E-01	0.430E-01	0.948E-02	0.384E-04	0.295E-06
194.219	69.0	0.657E+00	0.733E-01	0.251E-01	0.419E-01	0.769E-02	0.261E-04	0.185E-06
195.462	70.0	0.624E+00	0.546E-01	0.303E-01	0.400E-01	0.539E-02	0.176E-04	0.114E-06
196.704	71.0	0.580E+00	0.402E-01	0.361E-01	0.373E-01	0.395E-02	0.117E-04	0.696E-07
197.946	72.0	0.530E+00	0.295E-01	0.421E-01	0.341E-01	0.281E-02	0.779E-05	0.419E-07
199.189	73.0	0.475E+00	0.217E-01	0.481E-01	0.305E-01	0.176E-02	0.512E-05	0.245E-07
200.431	74.0	0.418E+00	0.162E-01	0.537E-01	0.266E-01	0.121E-02	0.335E-05	0.138E-07
201.674	75.0	0.362E+00	0.127E-01	0.587E-01	0.227E-01	0.840E-03	0.218E-05	0.678E-08
202.916	76.0	0.308E+00	0.108E-01	0.630E-01	0.190E-01	0.576E-03	0.141E-05	0.199E-08
204.159	77.0	0.259E+00	0.104E-01	0.662E-01	0.155E-01	0.401E-03	0.904E-06	0.000E+00
205.401	78.0	0.214E+00	0.112E-01	0.683E-01	0.117E-01	0.255E-03	0.575E-06	0.000E+00
206.643	79.0	0.175E+00	0.133E-01	0.693E-01	0.784E-02	0.168E-03	0.364E-06	0.000E+00
207.886	80.0	0.141E+00	0.163E-01	0.690E-01	0.526E-02	0.116E-03	0.227E-06	0.000E+00
209.128	81.0	0.112E+00	0.203E-01	0.675E-01	0.334E-02	0.699E-04	0.140E-06	0.000E+00
210.371	82.0	0.887E-01	0.249E-01	0.644E-01	0.210E-02	0.461E-04	0.854E-07	0.000E+00
211.613	83.0	0.695E-01	0.300E-01	0.602E-01	0.128E-02	0.263E-04	0.509E-07	0.000E+00
212.856	84.0	0.543E-01	0.353E-01	0.552E-01	0.779E-03	0.160E-04	0.287E-07	0.000E+00
214.098	85.0	0.425E-01	0.406E-01	0.496E-01	0.456E-03	0.940E-05	0.155E-07	0.000E+00
215.340	86.0	0.423E-01	0.417E-01	0.491E-01	0.470E-03	0.530E-05	0.650E-08	0.000E+00
216.583	87.0	0.356E-01	0.464E-01	0.358E-01	0.258E-03	0.288E-05	0.000E+00	0.000E+00
217.825	88.0	0.359E-01	0.460E-01	0.434E-01	0.143E-03	0.000E+00	0.000E+00	0.000E+00
219.068	89.0	0.299E-01	0.499E-01	0.313E-01	0.777E-04	0.000E+00	0.000E+00	0.000E+00
220.310	90.0	0.262E-01	0.531E-01	0.201E-01	0.249E-04	0.000E+00	0.000E+00	0.000E+00


