E_lab	E*/MeV	197At	198At	199At	200At	201At	202At	203At
182.760	44.0	0.000E+00	0.000E+00	0.649E-07	0.491E-07	0.109E-09	0.000E+00	0.000E+00
184.037	45.0	0.000E+00	0.000E+00	0.242E-06	0.113E-06	0.194E-09	0.000E+00	0.000E+00
185.314	46.0	0.000E+00	0.000E+00	0.503E-04	0.515E-04	0.540E-06	0.000E+00	0.000E+00
186.591	47.0	0.000E+00	0.576E-10	0.256E-03	0.195E-03	0.208E-05	0.000E+00	0.000E+00
187.867	48.0	0.000E+00	0.392E-08	0.952E-03	0.496E-03	0.446E-05	0.000E+00	0.000E+00
189.144	49.0	0.000E+00	0.130E-06	0.330E-02	0.117E-02	0.861E-05	0.000E+00	0.000E+00
190.421	50.0	0.000E+00	0.257E-05	0.108E-01	0.267E-02	0.163E-04	0.000E+00	0.000E+00
191.697	51.0	0.000E+00	0.330E-04	0.332E-01	0.588E-02	0.302E-04	0.000E+00	0.000E+00
192.974	52.0	0.000E+00	0.280E-03	0.902E-01	0.119E-01	0.527E-04	0.000E+00	0.000E+00
194.251	53.0	0.000E+00	0.151E-02	0.196E+00	0.203E-01	0.801E-04	0.000E+00	0.000E+00
195.528	54.0	0.000E+00	0.502E-02	0.313E+00	0.266E-01	0.964E-04	0.000E+00	0.000E+00
196.804	55.0	0.000E+00	0.111E-01	0.371E+00	0.267E-01	0.901E-04	0.000E+00	0.000E+00
198.081	56.0	0.000E+00	0.187E-01	0.358E+00	0.221E-01	0.684E-04	0.000E+00	0.000E+00
199.358	57.0	0.530E-07	0.271E-01	0.306E+00	0.162E-01	0.451E-04	0.000E+00	0.000E+00
200.635	58.0	0.506E-06	0.358E-01	0.243E+00	0.110E-01	0.271E-04	0.000E+00	0.000E+00
201.911	59.0	0.327E-05	0.444E-01	0.184E+00	0.715E-02	0.152E-04	0.000E+00	0.000E+00
203.188	60.0	0.153E-04	0.522E-01	0.136E+00	0.454E-02	0.792E-05	0.000E+00	0.000E+00
204.465	61.0	0.547E-04	0.585E-01	0.985E-01	0.284E-02	0.351E-05	0.000E+00	0.000E+00
205.742	62.0	0.156E-03	0.628E-01	0.702E-01	0.177E-02	0.000E+00	0.000E+00	0.000E+00
207.018	63.0	0.368E-03	0.647E-01	0.494E-01	0.109E-02	0.000E+00	0.000E+00	0.000E+00
208.295	64.0	0.748E-03	0.641E-01	0.344E-01	0.673E-03	0.000E+00	0.000E+00	0.000E+00
209.572	65.0	0.135E-02	0.613E-01	0.237E-01	0.413E-03	0.000E+00	0.000E+00	0.000E+00
210.848	66.0	0.220E-02	0.566E-01	0.162E-01	0.253E-03	0.000E+00	0.000E+00	0.000E+00
212.125	67.0	0.331E-02	0.508E-01	0.110E-01	0.154E-03	0.000E+00	0.000E+00	0.000E+00
213.402	68.0	0.462E-02	0.443E-01	0.742E-02	0.938E-04	0.000E+00	0.000E+00	0.000E+00
214.679	69.0	0.604E-02	0.377E-01	0.497E-02	0.567E-04	0.000E+00	0.000E+00	0.000E+00
215.955	70.0	0.745E-02	0.314E-01	0.332E-02	0.342E-04	0.000E+00	0.000E+00	0.000E+00
217.232	71.0	0.870E-02	0.256E-01	0.220E-02	0.204E-04	0.000E+00	0.000E+00	0.000E+00
218.509	72.0	0.968E-02	0.206E-01	0.146E-02	0.121E-04	0.000E+00	0.000E+00	0.000E+00
219.786	73.0	0.103E-01	0.162E-01	0.959E-03	0.709E-05	0.000E+00	0.000E+00	0.000E+00
221.062	74.0	0.105E-01	0.126E-01	0.629E-03	0.406E-05	0.000E+00	0.000E+00	0.000E+00
222.339	75.0	0.104E-01	0.968E-02	0.411E-03	0.220E-05	0.000E+00	0.000E+00	0.000E+00
223.616	76.0	0.992E-02	0.734E-02	0.268E-03	0.116E-05	0.000E+00	0.000E+00	0.000E+00
224.892	77.0	0.921E-02	0.551E-02	0.174E-03	0.443E-06	0.000E+00	0.000E+00	0.000E+00
226.169	78.0	0.833E-02	0.410E-02	0.113E-03	0.000E+00	0.000E+00	0.000E+00	0.000E+00
227.446	79.0	0.736E-02	0.302E-02	0.726E-04	0.000E+00	0.000E+00	0.000E+00	0.000E+00
228.723	80.0	0.637E-02	0.221E-02	0.466E-04	0.000E+00	0.000E+00	0.000E+00	0.000E+00
229.999	81.0	0.541E-02	0.160E-02	0.298E-04	0.000E+00	0.000E+00	0.000E+00	0.000E+00
231.276	82.0	0.452E-02	0.116E-02	0.190E-04	0.000E+00	0.000E+00	0.000E+00	0.000E+00
232.553	83.0	0.372E-02	0.830E-03	0.120E-04	0.000E+00	0.000E+00	0.000E+00	0.000E+00
233.830	84.0	0.301E-02	0.592E-03	0.751E-05	0.000E+00	0.000E+00	0.000E+00	0.000E+00
235.106	85.0	0.241E-02	0.420E-03	0.468E-05	0.000E+00	0.000E+00	0.000E+00	0.000E+00
236.383	86.0	0.191E-02	0.297E-03	0.285E-05	0.000E+00	0.000E+00	0.000E+00	0.000E+00
237.660	87.0	0.150E-02	0.209E-03	0.172E-05	0.000E+00	0.000E+00	0.000E+00	0.000E+00
238.936	88.0	0.116E-02	0.146E-03	0.993E-06	0.000E+00	0.000E+00	0.000E+00	0.000E+00
240.213	89.0	0.895E-03	0.102E-03	0.529E-06	0.000E+00	0.000E+00	0.000E+00	0.000E+00
241.490	90.0	0.683E-03	0.710E-04	0.259E-06	0.000E+00	0.000E+00	0.000E+00	0.000E+00


E_lab	E*/MeV	196Po	197Po	198Po	199Po	200Po	201Po	202Po
182.760	44.0	0.000E+00	0.000E+00	0.131E-10	0.488E-07	0.407E-07	0.400E-10	0.000E+00
184.037	45.0	0.000E+00	0.000E+00	0.228E-09	0.188E-06	0.104E-06	0.732E-10	0.000E+00
185.314	46.0	0.000E+00	0.000E+00	0.112E-07	0.367E-04	0.491E-04	0.176E-06	0.957E-10
186.591	47.0	0.000E+00	0.000E+00	0.177E-06	0.196E-03	0.217E-03	0.786E-06	0.694E-09
187.867	48.0	0.000E+00	0.000E+00	0.203E-05	0.773E-03	0.630E-03	0.197E-05	0.190E-08
189.144	49.0	0.000E+00	0.000E+00	0.194E-04	0.286E-02	0.167E-02	0.411E-05	0.332E-08
190.421	50.0	0.000E+00	0.000E+00	0.158E-03	0.102E-01	0.428E-02	0.820E-05	0.273E-08
191.697	51.0	0.000E+00	0.000E+00	0.109E-02	0.342E-01	0.104E-01	0.158E-04	0.000E+00
192.974	52.0	0.000E+00	0.000E+00	0.606E-02	0.103E+00	0.235E-01	0.290E-04	0.000E+00
194.251	53.0	0.000E+00	0.000E+00	0.249E-01	0.252E+00	0.447E-01	0.477E-04	0.000E+00
195.528	54.0	0.000E+00	0.526E-07	0.692E-01	0.454E+00	0.659E-01	0.657E-04	0.000E+00
196.804	55.0	0.000E+00	0.522E-06	0.137E+00	0.616E+00	0.757E-01	0.749E-04	0.000E+00
198.081	56.0	0.000E+00	0.329E-05	0.216E+00	0.685E+00	0.719E-01	0.726E-04	0.000E+00
199.358	57.0	0.000E+00	0.154E-04	0.295E+00	0.674E+00	0.599E-01	0.615E-04	0.000E+00
200.635	58.0	0.000E+00	0.581E-04	0.371E+00	0.614E+00	0.455E-01	0.466E-04	0.000E+00
201.911	59.0	0.000E+00	0.183E-03	0.439E+00	0.531E+00	0.326E-01	0.322E-04	0.000E+00
203.188	60.0	0.000E+00	0.499E-03	0.499E+00	0.444E+00	0.224E-01	0.206E-04	0.000E+00
204.465	61.0	0.000E+00	0.119E-02	0.546E+00	0.361E+00	0.150E-01	0.124E-04	0.000E+00
205.742	62.0	0.000E+00	0.253E-02	0.579E+00	0.287E+00	0.995E-02	0.723E-05	0.000E+00
207.018	63.0	0.000E+00	0.486E-02	0.597E+00	0.224E+00	0.651E-02	0.405E-05	0.000E+00
208.295	64.0	0.000E+00	0.853E-02	0.599E+00	0.172E+00	0.423E-02	0.217E-05	0.000E+00
209.572	65.0	0.114E-06	0.138E-01	0.585E+00	0.130E+00	0.273E-02	0.110E-05	0.000E+00
210.848	66.0	0.591E-06	0.208E-01	0.558E+00	0.967E-01	0.175E-02	0.466E-06	0.000E+00
212.125	67.0	0.253E-05	0.295E-01	0.519E+00	0.712E-01	0.112E-02	0.151E-07	0.000E+00
213.402	68.0	0.926E-05	0.397E-01	0.471E+00	0.518E-01	0.711E-03	0.000E+00	0.000E+00
214.679	69.0	0.293E-04	0.511E-01	0.419E+00	0.373E-01	0.449E-03	0.000E+00	0.000E+00
215.955	70.0	0.814E-04	0.630E-01	0.365E+00	0.266E-01	0.283E-03	0.000E+00	0.000E+00
217.232	71.0	0.201E-03	0.750E-01	0.312E+00	0.188E-01	0.177E-03	0.000E+00	0.000E+00
218.509	72.0	0.445E-03	0.864E-01	0.262E+00	0.132E-01	0.110E-03	0.000E+00	0.000E+00
219.786	73.0	0.895E-03	0.967E-01	0.216E+00	0.919E-02	0.685E-04	0.000E+00	0.000E+00
221.062	74.0	0.165E-02	0.105E+00	0.175E+00	0.636E-02	0.423E-04	0.000E+00	0.000E+00
222.339	75.0	0.283E-02	0.111E+00	0.141E+00	0.437E-02	0.260E-04	0.000E+00	0.000E+00
223.616	76.0	0.453E-02	0.115E+00	0.111E+00	0.299E-02	0.159E-04	0.000E+00	0.000E+00
224.892	77.0	0.683E-02	0.116E+00	0.868E-01	0.203E-02	0.963E-05	0.000E+00	0.000E+00
226.169	78.0	0.976E-02	0.115E+00	0.670E-01	0.138E-02	0.577E-05	0.000E+00	0.000E+00
227.446	79.0	0.133E-01	0.110E+00	0.513E-01	0.927E-03	0.342E-05	0.000E+00	0.000E+00
228.723	80.0	0.173E-01	0.104E+00	0.388E-01	0.621E-03	0.190E-05	0.000E+00	0.000E+00
229.999	81.0	0.216E-01	0.967E-01	0.292E-01	0.414E-03	0.914E-06	0.000E+00	0.000E+00
231.276	82.0	0.261E-01	0.880E-01	0.217E-01	0.275E-03	0.287E-06	0.000E+00	0.000E+00
232.553	83.0	0.304E-01	0.786E-01	0.161E-01	0.182E-03	0.000E+00	0.000E+00	0.000E+00
233.830	84.0	0.344E-01	0.691E-01	0.118E-01	0.120E-03	0.000E+00	0.000E+00	0.000E+00
235.106	85.0	0.377E-01	0.598E-01	0.860E-02	0.787E-04	0.000E+00	0.000E+00	0.000E+00
236.383	86.0	0.402E-01	0.511E-01	0.624E-02	0.514E-04	0.000E+00	0.000E+00	0.000E+00
237.660	87.0	0.418E-01	0.430E-01	0.450E-02	0.334E-04	0.000E+00	0.000E+00	0.000E+00
238.936	88.0	0.424E-01	0.358E-01	0.323E-02	0.216E-04	0.000E+00	0.000E+00	0.000E+00
240.213	89.0	0.421E-01	0.294E-01	0.230E-02	0.139E-04	0.000E+00	0.000E+00	0.000E+00
241.490	90.0	0.409E-01	0.240E-01	0.164E-02	0.889E-05	0.000E+00	0.000E+00	0.000E+00


E_lab	E*/MeV	195Bi	196Bi	197Bi	198Bi	199Bi	200Bi	201Bi
182.760	44.0	0.511E-14	0.301E-08	0.134E-07	0.422E-10	0.102E-08	0.605E-09	0.353E-11
184.037	45.0	0.382E-12	0.160E-07	0.406E-07	0.824E-10	0.419E-08	0.175E-08	0.696E-11
185.314	46.0	0.955E-10	0.368E-05	0.144E-04	0.123E-06	0.986E-06	0.602E-06	0.953E-08
186.591	47.0	0.223E-08	0.243E-04	0.713E-04	0.565E-06	0.552E-05	0.277E-05	0.428E-07
187.867	48.0	0.356E-07	0.117E-03	0.234E-03	0.153E-05	0.230E-04	0.845E-05	0.117E-06
189.144	49.0	0.446E-06	0.510E-03	0.690E-03	0.382E-05	0.896E-04	0.235E-04	0.272E-06
190.421	50.0	0.468E-05	0.209E-02	0.194E-02	0.116E-04	0.336E-03	0.624E-04	0.603E-06
191.697	51.0	0.416E-04	0.792E-02	0.520E-02	0.481E-04	0.119E-02	0.158E-03	0.129E-05
192.974	52.0	0.301E-03	0.268E-01	0.127E-01	0.229E-03	0.381E-02	0.367E-03	0.263E-05
194.251	53.0	0.161E-02	0.733E-01	0.265E-01	0.930E-03	0.996E-02	0.723E-03	0.480E-05
195.528	54.0	0.586E-02	0.149E+00	0.434E-01	0.270E-02	0.194E-01	0.112E-02	0.745E-05
196.804	55.0	0.150E-01	0.231E+00	0.563E-01	0.568E-02	0.287E-01	0.138E-02	0.979E-05
198.081	56.0	0.300E-01	0.293E+00	0.618E-01	0.958E-02	0.352E-01	0.145E-02	0.112E-04
199.358	57.0	0.506E-01	0.326E+00	0.598E-01	0.141E-01	0.384E-01	0.137E-02	0.115E-04
200.635	58.0	0.761E-01	0.332E+00	0.528E-01	0.192E-01	0.390E-01	0.120E-02	0.108E-04
201.911	59.0	0.105E+00	0.319E+00	0.432E-01	0.245E-01	0.376E-01	0.992E-03	0.927E-05
203.188	60.0	0.137E+00	0.293E+00	0.335E-01	0.300E-01	0.351E-01	0.784E-03	0.739E-05
204.465	61.0	0.169E+00	0.260E+00	0.251E-01	0.353E-01	0.318E-01	0.596E-03	0.551E-05
205.742	62.0	0.200E+00	0.225E+00	0.188E-01	0.403E-01	0.281E-01	0.440E-03	0.386E-05
207.018	63.0	0.228E+00	0.189E+00	0.145E-01	0.446E-01	0.244E-01	0.317E-03	0.259E-05
208.295	64.0	0.252E+00	0.156E+00	0.123E-01	0.480E-01	0.207E-01	0.223E-03	0.168E-05
209.572	65.0	0.271E+00	0.126E+00	0.119E-01	0.503E-01	0.174E-01	0.155E-03	0.107E-05
210.848	66.0	0.284E+00	0.998E-01	0.130E-01	0.514E-01	0.143E-01	0.107E-03	0.671E-06
212.125	67.0	0.290E+00	0.779E-01	0.156E-01	0.512E-01	0.117E-01	0.724E-04	0.416E-06
213.402	68.0	0.291E+00	0.599E-01	0.193E-01	0.499E-01	0.935E-02	0.488E-04	0.255E-06
214.679	69.0	0.285E+00	0.455E-01	0.238E-01	0.475E-01	0.663E-02	0.327E-04	0.155E-06
215.955	70.0	0.273E+00	0.341E-01	0.290E-01	0.442E-01	0.465E-02	0.217E-04	0.930E-07
217.232	71.0	0.256E+00	0.253E-01	0.345E-01	0.404E-01	0.320E-02	0.144E-04	0.546E-07
218.509	72.0	0.236E+00	0.187E-01	0.401E-01	0.361E-01	0.213E-02	0.943E-05	0.313E-07
219.786	73.0	0.213E+00	0.138E-01	0.455E-01	0.318E-01	0.142E-02	0.616E-05	0.158E-07
221.062	74.0	0.188E+00	0.104E-01	0.504E-01	0.274E-01	0.947E-03	0.400E-05	0.666E-08
222.339	75.0	0.164E+00	0.815E-02	0.547E-01	0.231E-01	0.643E-03	0.258E-05	0.000E+00
223.616	76.0	0.140E+00	0.700E-02	0.582E-01	0.192E-01	0.435E-03	0.165E-05	0.000E+00
224.892	77.0	0.118E+00	0.680E-02	0.608E-01	0.151E-01	0.293E-03	0.105E-05	0.000E+00
226.169	78.0	0.974E-01	0.746E-02	0.623E-01	0.104E-01	0.183E-03	0.666E-06	0.000E+00
227.446	79.0	0.796E-01	0.889E-02	0.627E-01	0.799E-02	0.118E-03	0.419E-06	0.000E+00
228.723	80.0	0.643E-01	0.110E-01	0.621E-01	0.502E-02	0.756E-04	0.261E-06	0.000E+00
229.999	81.0	0.512E-01	0.138E-01	0.604E-01	0.309E-02	0.462E-04	0.158E-06	0.000E+00
231.276	82.0	0.404E-01	0.170E-01	0.576E-01	0.182E-02	0.262E-04	0.945E-07	0.000E+00
232.553	83.0	0.398E-01	0.177E-01	0.571E-01	0.162E-02	0.164E-04	0.550E-07	0.000E+00
233.830	84.0	0.311E-01	0.213E-01	0.532E-01	0.955E-03	0.804E-05	0.310E-07	0.000E+00
235.106	85.0	0.243E-01	0.249E-01	0.485E-01	0.566E-03	0.376E-05	0.151E-07	0.000E+00
236.383	86.0	0.190E-01	0.285E-01	0.434E-01	0.333E-03	0.000E+00	0.319E-08	0.000E+00
237.660	87.0	0.157E-01	0.314E-01	0.381E-01	0.196E-03	0.000E+00	0.000E+00	0.000E+00
238.936	88.0	0.157E-01	0.311E-01	0.383E-01	0.100E-03	0.000E+00	0.000E+00	0.000E+00
240.213	89.0	0.128E-01	0.341E-01	0.329E-01	0.504E-04	0.000E+00	0.000E+00	0.000E+00
241.490	90.0	0.110E-01	0.365E-01	0.225E-01	0.258E-04	0.000E+00	0.000E+00	0.000E+00


