E_lab	E*/MeV	192At	193At	194At	195At	196At	197At	198At
212.265	33.0	0.000E+00	0.000E+00	0.000E+00	0.151E-09	0.505E-09	0.233E-13	0.000E+00
213.612	34.0	0.000E+00	0.000E+00	0.000E+00	0.882E-09	0.953E-09	0.358E-13	0.000E+00
214.959	35.0	0.000E+00	0.000E+00	0.000E+00	0.139E-06	0.154E-06	0.623E-10	0.000E+00
216.305	36.0	0.000E+00	0.000E+00	0.000E+00	0.153E-05	0.148E-05	0.807E-09	0.000E+00
217.652	37.0	0.000E+00	0.000E+00	0.000E+00	0.640E-05	0.336E-05	0.964E-09	0.000E+00
218.999	38.0	0.000E+00	0.000E+00	0.000E+00	0.223E-04	0.683E-05	0.000E+00	0.000E+00
220.346	39.0	0.000E+00	0.000E+00	0.000E+00	0.689E-04	0.135E-04	0.000E+00	0.000E+00
221.693	40.0	0.000E+00	0.000E+00	0.105E-09	0.192E-03	0.260E-04	0.000E+00	0.000E+00
223.040	41.0	0.000E+00	0.000E+00	0.716E-08	0.478E-03	0.475E-04	0.000E+00	0.000E+00
224.387	42.0	0.000E+00	0.000E+00	0.182E-06	0.984E-03	0.770E-04	0.000E+00	0.000E+00
225.734	43.0	0.000E+00	0.000E+00	0.196E-05	0.152E-02	0.988E-04	0.000E+00	0.000E+00
227.081	44.0	0.000E+00	0.000E+00	0.101E-04	0.170E-02	0.953E-04	0.000E+00	0.000E+00
228.428	45.0	0.000E+00	0.000E+00	0.312E-04	0.150E-02	0.730E-04	0.000E+00	0.000E+00
229.775	46.0	0.000E+00	0.000E+00	0.713E-04	0.114E-02	0.484E-04	0.000E+00	0.000E+00
231.122	47.0	0.000E+00	0.000E+00	0.134E-03	0.802E-03	0.296E-04	0.000E+00	0.000E+00
232.469	48.0	0.000E+00	0.000E+00	0.217E-03	0.536E-03	0.173E-04	0.000E+00	0.000E+00
233.816	49.0	0.000E+00	0.000E+00	0.306E-03	0.349E-03	0.986E-05	0.000E+00	0.000E+00
235.163	50.0	0.000E+00	0.197E-09	0.384E-03	0.224E-03	0.549E-05	0.000E+00	0.000E+00
236.510	51.0	0.000E+00	0.248E-08	0.436E-03	0.142E-03	0.301E-05	0.000E+00	0.000E+00
237.857	52.0	0.000E+00	0.185E-07	0.455E-03	0.889E-04	0.157E-05	0.000E+00	0.000E+00
239.203	53.0	0.000E+00	0.926E-07	0.443E-03	0.554E-04	0.779E-06	0.000E+00	0.000E+00
240.550	54.0	0.000E+00	0.340E-06	0.406E-03	0.343E-04	0.303E-06	0.000E+00	0.000E+00
241.897	55.0	0.000E+00	0.971E-06	0.356E-03	0.212E-04	0.000E+00	0.000E+00	0.000E+00
243.244	56.0	0.000E+00	0.227E-05	0.299E-03	0.130E-04	0.000E+00	0.000E+00	0.000E+00
244.591	57.0	0.000E+00	0.444E-05	0.243E-03	0.798E-05	0.000E+00	0.000E+00	0.000E+00
245.938	58.0	0.000E+00	0.745E-05	0.192E-03	0.487E-05	0.000E+00	0.000E+00	0.000E+00
247.285	59.0	0.000E+00	0.110E-04	0.148E-03	0.296E-05	0.000E+00	0.000E+00	0.000E+00
248.632	60.0	0.000E+00	0.145E-04	0.112E-03	0.179E-05	0.000E+00	0.000E+00	0.000E+00
249.979	61.0	0.000E+00	0.174E-04	0.830E-04	0.107E-05	0.000E+00	0.000E+00	0.000E+00
251.326	62.0	0.113E-10	0.194E-04	0.606E-04	0.635E-06	0.000E+00	0.000E+00	0.000E+00
252.673	63.0	0.925E-10	0.203E-04	0.437E-04	0.357E-06	0.000E+00	0.000E+00	0.000E+00
254.020	64.0	0.538E-09	0.201E-04	0.311E-04	0.193E-06	0.000E+00	0.000E+00	0.000E+00
255.367	65.0	0.236E-08	0.190E-04	0.220E-04	0.775E-07	0.000E+00	0.000E+00	0.000E+00
256.714	66.0	0.819E-08	0.173E-04	0.153E-04	0.000E+00	0.000E+00	0.000E+00	0.000E+00
258.061	67.0	0.234E-07	0.152E-04	0.106E-04	0.000E+00	0.000E+00	0.000E+00	0.000E+00
259.408	68.0	0.572E-07	0.130E-04	0.732E-05	0.000E+00	0.000E+00	0.000E+00	0.000E+00
260.754	69.0	0.122E-06	0.108E-04	0.501E-05	0.000E+00	0.000E+00	0.000E+00	0.000E+00
262.101	70.0	0.230E-06	0.881E-05	0.341E-05	0.000E+00	0.000E+00	0.000E+00	0.000E+00
263.448	71.0	0.389E-06	0.704E-05	0.231E-05	0.000E+00	0.000E+00	0.000E+00	0.000E+00
264.795	72.0	0.599E-06	0.554E-05	0.156E-05	0.000E+00	0.000E+00	0.000E+00	0.000E+00
266.142	73.0	0.845E-06	0.429E-05	0.104E-05	0.000E+00	0.000E+00	0.000E+00	0.000E+00
267.489	74.0	0.111E-05	0.328E-05	0.698E-06	0.000E+00	0.000E+00	0.000E+00	0.000E+00
268.836	75.0	0.136E-05	0.248E-05	0.465E-06	0.000E+00	0.000E+00	0.000E+00	0.000E+00
270.183	76.0	0.157E-05	0.185E-05	0.308E-06	0.000E+00	0.000E+00	0.000E+00	0.000E+00
271.530	77.0	0.173E-05	0.137E-05	0.202E-06	0.000E+00	0.000E+00	0.000E+00	0.000E+00
272.877	78.0	0.182E-05	0.101E-05	0.132E-06	0.000E+00	0.000E+00	0.000E+00	0.000E+00
274.224	79.0	0.185E-05	0.736E-06	0.845E-07	0.000E+00	0.000E+00	0.000E+00	0.000E+00
275.571	80.0	0.181E-05	0.533E-06	0.541E-07	0.000E+00	0.000E+00	0.000E+00	0.000E+00
276.918	81.0	0.172E-05	0.384E-06	0.326E-07	0.000E+00	0.000E+00	0.000E+00	0.000E+00
278.265	82.0	0.159E-05	0.275E-06	0.172E-07	0.000E+00	0.000E+00	0.000E+00	0.000E+00
279.612	83.0	0.144E-05	0.196E-06	0.768E-08	0.000E+00	0.000E+00	0.000E+00	0.000E+00
280.959	84.0	0.128E-05	0.139E-06	0.000E+00	0.000E+00	0.000E+00	0.000E+00	0.000E+00
282.305	85.0	0.111E-05	0.981E-07	0.000E+00	0.000E+00	0.000E+00	0.000E+00	0.000E+00
283.652	86.0	0.949E-06	0.689E-07	0.000E+00	0.000E+00	0.000E+00	0.000E+00	0.000E+00
284.999	87.0	0.799E-06	0.481E-07	0.000E+00	0.000E+00	0.000E+00	0.000E+00	0.000E+00
286.346	88.0	0.663E-06	0.335E-07	0.000E+00	0.000E+00	0.000E+00	0.000E+00	0.000E+00
287.693	89.0	0.544E-06	0.231E-07	0.000E+00	0.000E+00	0.000E+00	0.000E+00	0.000E+00
289.040	90.0	0.441E-06	0.156E-07	0.000E+00	0.000E+00	0.000E+00	0.000E+00	0.000E+00


E_lab	E*/MeV	191Po	192Po	193Po	194Po	195Po	196Po	197Po
212.265	33.0	0.000E+00	0.000E+00	0.000E+00	0.398E-13	0.115E-08	0.879E-09	0.565E-12
213.612	34.0	0.000E+00	0.000E+00	0.000E+00	0.155E-11	0.533E-08	0.171E-08	0.904E-12
214.959	35.0	0.000E+00	0.000E+00	0.000E+00	0.308E-10	0.810E-06	0.758E-06	0.163E-08
216.305	36.0	0.000E+00	0.000E+00	0.000E+00	0.536E-09	0.838E-05	0.732E-05	0.272E-07
217.652	37.0	0.000E+00	0.000E+00	0.000E+00	0.702E-08	0.359E-04	0.181E-04	0.623E-07
218.999	38.0	0.000E+00	0.000E+00	0.000E+00	0.850E-07	0.140E-03	0.393E-04	0.115E-06
220.346	39.0	0.000E+00	0.000E+00	0.000E+00	0.895E-06	0.511E-03	0.825E-04	0.200E-06
221.693	40.0	0.000E+00	0.000E+00	0.000E+00	0.792E-05	0.173E-02	0.168E-03	0.344E-06
223.040	41.0	0.000E+00	0.000E+00	0.000E+00	0.570E-04	0.525E-02	0.326E-03	0.563E-06
224.387	42.0	0.000E+00	0.000E+00	0.000E+00	0.309E-03	0.132E-01	0.556E-03	0.832E-06
225.734	43.0	0.000E+00	0.000E+00	0.000E+00	0.113E-02	0.247E-01	0.753E-03	0.979E-06
227.081	44.0	0.000E+00	0.000E+00	0.000E+00	0.277E-02	0.331E-01	0.767E-03	0.880E-06
228.428	45.0	0.000E+00	0.000E+00	0.000E+00	0.504E-02	0.344E-01	0.617E-03	0.568E-06
229.775	46.0	0.000E+00	0.000E+00	0.259E-07	0.762E-02	0.305E-01	0.425E-03	0.178E-06
231.122	47.0	0.000E+00	0.000E+00	0.122E-06	0.102E-01	0.247E-01	0.267E-03	0.000E+00
232.469	48.0	0.000E+00	0.000E+00	0.409E-06	0.125E-01	0.189E-01	0.160E-03	0.000E+00
233.816	49.0	0.000E+00	0.000E+00	0.113E-05	0.142E-01	0.140E-01	0.939E-04	0.000E+00
235.163	50.0	0.000E+00	0.000E+00	0.288E-05	0.151E-01	0.101E-01	0.543E-04	0.000E+00
236.510	51.0	0.000E+00	0.000E+00	0.701E-05	0.152E-01	0.717E-02	0.310E-04	0.000E+00
237.857	52.0	0.000E+00	0.000E+00	0.161E-04	0.145E-01	0.500E-02	0.176E-04	0.000E+00
239.203	53.0	0.000E+00	0.000E+00	0.343E-04	0.133E-01	0.343E-02	0.990E-05	0.000E+00
240.550	54.0	0.000E+00	0.000E+00	0.674E-04	0.117E-01	0.233E-02	0.551E-05	0.000E+00
241.897	55.0	0.000E+00	0.000E+00	0.123E-03	0.993E-02	0.157E-02	0.299E-05	0.000E+00
243.244	56.0	0.000E+00	0.000E+00	0.207E-03	0.818E-02	0.104E-02	0.156E-05	0.000E+00
244.591	57.0	0.000E+00	0.765E-09	0.324E-03	0.657E-02	0.688E-03	0.749E-06	0.000E+00
245.938	58.0	0.000E+00	0.412E-08	0.474E-03	0.516E-02	0.451E-03	0.268E-06	0.000E+00
247.285	59.0	0.000E+00	0.183E-07	0.650E-03	0.396E-02	0.294E-03	0.000E+00	0.000E+00
248.632	60.0	0.000E+00	0.691E-07	0.838E-03	0.299E-02	0.190E-03	0.000E+00	0.000E+00
249.979	61.0	0.000E+00	0.224E-06	0.102E-02	0.222E-02	0.122E-03	0.000E+00	0.000E+00
251.326	62.0	0.000E+00	0.634E-06	0.118E-02	0.163E-02	0.783E-04	0.000E+00	0.000E+00
252.673	63.0	0.000E+00	0.159E-05	0.129E-02	0.118E-02	0.498E-04	0.000E+00	0.000E+00
254.020	64.0	0.000E+00	0.356E-05	0.136E-02	0.844E-03	0.316E-04	0.000E+00	0.000E+00
255.367	65.0	0.000E+00	0.721E-05	0.137E-02	0.598E-03	0.199E-04	0.000E+00	0.000E+00
256.714	66.0	0.000E+00	0.132E-04	0.133E-02	0.420E-03	0.125E-04	0.000E+00	0.000E+00
258.061	67.0	0.000E+00	0.223E-04	0.125E-02	0.293E-03	0.778E-05	0.000E+00	0.000E+00
259.408	68.0	0.000E+00	0.346E-04	0.115E-02	0.203E-03	0.483E-05	0.000E+00	0.000E+00
260.754	69.0	0.146E-09	0.500E-04	0.102E-02	0.139E-03	0.296E-05	0.000E+00	0.000E+00
262.101	70.0	0.479E-09	0.674E-04	0.888E-03	0.951E-04	0.180E-05	0.000E+00	0.000E+00
263.448	71.0	0.142E-08	0.856E-04	0.756E-03	0.646E-04	0.107E-05	0.000E+00	0.000E+00
264.795	72.0	0.393E-08	0.103E-03	0.631E-03	0.436E-04	0.622E-06	0.000E+00	0.000E+00
266.142	73.0	0.104E-07	0.118E-03	0.518E-03	0.293E-04	0.339E-06	0.000E+00	0.000E+00
267.489	74.0	0.262E-07	0.129E-03	0.419E-03	0.196E-04	0.161E-06	0.000E+00	0.000E+00
268.836	75.0	0.618E-07	0.136E-03	0.334E-03	0.131E-04	0.000E+00	0.000E+00	0.000E+00
270.183	76.0	0.136E-06	0.138E-03	0.263E-03	0.865E-05	0.000E+00	0.000E+00	0.000E+00
271.530	77.0	0.277E-06	0.135E-03	0.204E-03	0.571E-05	0.000E+00	0.000E+00	0.000E+00
272.877	78.0	0.524E-06	0.130E-03	0.157E-03	0.374E-05	0.000E+00	0.000E+00	0.000E+00
274.224	79.0	0.923E-06	0.121E-03	0.120E-03	0.244E-05	0.000E+00	0.000E+00	0.000E+00
275.571	80.0	0.152E-05	0.110E-03	0.907E-04	0.158E-05	0.000E+00	0.000E+00	0.000E+00
276.918	81.0	0.234E-05	0.980E-04	0.680E-04	0.102E-05	0.000E+00	0.000E+00	0.000E+00
278.265	82.0	0.341E-05	0.857E-04	0.506E-04	0.643E-06	0.000E+00	0.000E+00	0.000E+00
279.612	83.0	0.469E-05	0.737E-04	0.374E-04	0.395E-06	0.000E+00	0.000E+00	0.000E+00
280.959	84.0	0.614E-05	0.624E-04	0.275E-04	0.229E-06	0.000E+00	0.000E+00	0.000E+00
282.305	85.0	0.767E-05	0.521E-04	0.200E-04	0.128E-06	0.000E+00	0.000E+00	0.000E+00
283.652	86.0	0.920E-05	0.429E-04	0.145E-04	0.542E-07	0.000E+00	0.000E+00	0.000E+00
284.999	87.0	0.106E-04	0.350E-04	0.105E-04	0.131E-07	0.000E+00	0.000E+00	0.000E+00
286.346	88.0	0.118E-04	0.282E-04	0.754E-05	0.000E+00	0.000E+00	0.000E+00	0.000E+00
287.693	89.0	0.127E-04	0.225E-04	0.539E-05	0.000E+00	0.000E+00	0.000E+00	0.000E+00
289.040	90.0	0.133E-04	0.178E-04	0.384E-05	0.000E+00	0.000E+00	0.000E+00	0.000E+00


E_lab	E*/MeV	190Bi	191Bi	192Bi	193Bi	194Bi	195Bi	196Bi
212.265	33.0	0.000E+00	0.000E+00	0.113E-09	0.172E-08	0.123E-11	0.604E-09	0.201E-09
213.612	34.0	0.000E+00	0.000E+00	0.707E-09	0.436E-08	0.225E-11	0.242E-08	0.486E-09
214.959	35.0	0.000E+00	0.000E+00	0.134E-06	0.946E-06	0.255E-08	0.339E-06	0.891E-07
216.305	36.0	0.000E+00	0.182E-11	0.160E-05	0.989E-05	0.469E-07	0.336E-05	0.963E-06
217.652	37.0	0.000E+00	0.987E-10	0.809E-05	0.309E-04	0.150E-06	0.138E-04	0.288E-05
218.999	38.0	0.000E+00	0.257E-08	0.364E-04	0.824E-04	0.495E-06	0.528E-04	0.749E-05
220.346	39.0	0.000E+00	0.432E-07	0.153E-03	0.206E-03	0.245E-05	0.195E-03	0.185E-04
221.693	40.0	0.000E+00	0.538E-06	0.602E-03	0.492E-03	0.152E-04	0.690E-03	0.439E-04
223.040	41.0	0.000E+00	0.521E-05	0.216E-02	0.110E-02	0.900E-04	0.227E-02	0.982E-04
224.387	42.0	0.000E+00	0.373E-04	0.654E-02	0.216E-02	0.425E-03	0.636E-02	0.195E-03
225.734	43.0	0.000E+00	0.178E-03	0.149E-01	0.339E-02	0.140E-02	0.136E-01	0.316E-03
227.081	44.0	0.000E+00	0.561E-03	0.247E-01	0.405E-02	0.315E-02	0.212E-01	0.403E-03
228.428	45.0	0.000E+00	0.128E-02	0.319E-01	0.384E-02	0.543E-02	0.262E-01	0.420E-03
229.775	46.0	0.000E+00	0.239E-02	0.351E-01	0.309E-02	0.796E-02	0.277E-01	0.378E-03
231.122	47.0	0.000E+00	0.389E-02	0.348E-01	0.224E-02	0.106E-01	0.266E-01	0.304E-03
232.469	48.0	0.000E+00	0.576E-02	0.322E-01	0.154E-02	0.133E-01	0.241E-01	0.226E-03
233.816	49.0	0.156E-07	0.793E-02	0.282E-01	0.108E-02	0.159E-01	0.208E-01	0.158E-03
235.163	50.0	0.818E-07	0.103E-01	0.238E-01	0.864E-03	0.182E-01	0.175E-01	0.106E-03
236.510	51.0	0.339E-06	0.126E-01	0.194E-01	0.904E-03	0.203E-01	0.142E-01	0.691E-04
237.857	52.0	0.118E-05	0.148E-01	0.153E-01	0.121E-02	0.219E-01	0.113E-01	0.443E-04
239.203	53.0	0.353E-05	0.166E-01	0.118E-01	0.182E-02	0.229E-01	0.882E-02	0.281E-04
240.550	54.0	0.938E-05	0.178E-01	0.894E-02	0.276E-02	0.234E-01	0.675E-02	0.176E-04
241.897	55.0	0.223E-04	0.184E-01	0.662E-02	0.402E-02	0.231E-01	0.507E-02	0.110E-04
243.244	56.0	0.476E-04	0.182E-01	0.481E-02	0.559E-02	0.223E-01	0.376E-02	0.679E-05
244.591	57.0	0.923E-04	0.174E-01	0.345E-02	0.743E-02	0.210E-01	0.274E-02	0.417E-05
245.938	58.0	0.164E-03	0.161E-01	0.244E-02	0.946E-02	0.192E-01	0.198E-02	0.255E-05
247.285	59.0	0.269E-03	0.144E-01	0.170E-02	0.116E-01	0.172E-01	0.141E-02	0.155E-05
248.632	60.0	0.412E-03	0.125E-01	0.118E-02	0.137E-01	0.150E-01	0.994E-03	0.932E-06
249.979	61.0	0.593E-03	0.106E-01	0.820E-03	0.157E-01	0.129E-01	0.694E-03	0.558E-06
251.326	62.0	0.808E-03	0.873E-02	0.583E-03	0.174E-01	0.108E-01	0.481E-03	0.331E-06
252.673	63.0	0.105E-02	0.705E-02	0.443E-03	0.188E-01	0.890E-02	0.330E-03	0.195E-06
254.020	64.0	0.130E-02	0.559E-02	0.389E-03	0.197E-01	0.720E-02	0.225E-03	0.113E-06
255.367	65.0	0.155E-02	0.436E-02	0.412E-03	0.202E-01	0.574E-02	0.152E-03	0.634E-07
256.714	66.0	0.178E-02	0.334E-02	0.510E-03	0.202E-01	0.451E-02	0.102E-03	0.332E-07
258.061	67.0	0.196E-02	0.253E-02	0.684E-03	0.197E-01	0.349E-02	0.685E-04	0.148E-07
259.408	68.0	0.209E-02	0.189E-02	0.933E-03	0.188E-01	0.267E-02	0.455E-04	0.268E-08
260.754	69.0	0.215E-02	0.139E-02	0.125E-02	0.176E-01	0.199E-02	0.301E-04	0.000E+00
262.101	70.0	0.214E-02	0.102E-02	0.163E-02	0.161E-01	0.116E-02	0.198E-04	0.000E+00
263.448	71.0	0.207E-02	0.741E-03	0.206E-02	0.144E-01	0.694E-03	0.129E-04	0.000E+00
264.795	72.0	0.195E-02	0.537E-03	0.252E-02	0.127E-01	0.427E-03	0.839E-05	0.000E+00
266.142	73.0	0.180E-02	0.393E-03	0.299E-02	0.110E-01	0.273E-03	0.542E-05	0.000E+00
267.489	74.0	0.161E-02	0.297E-03	0.345E-02	0.932E-02	0.179E-03	0.348E-05	0.000E+00
268.836	75.0	0.142E-02	0.242E-03	0.388E-02	0.776E-02	0.119E-03	0.223E-05	0.000E+00
270.183	76.0	0.122E-02	0.224E-03	0.424E-02	0.634E-02	0.799E-04	0.141E-05	0.000E+00
271.530	77.0	0.104E-02	0.240E-03	0.453E-02	0.508E-02	0.558E-04	0.891E-06	0.000E+00
272.877	78.0	0.864E-03	0.290E-03	0.473E-02	0.397E-02	0.412E-04	0.556E-06	0.000E+00
274.224	79.0	0.709E-03	0.373E-03	0.482E-02	0.249E-02	0.311E-04	0.344E-06	0.000E+00
275.571	80.0	0.575E-03	0.488E-03	0.482E-02	0.144E-02	0.173E-04	0.207E-06	0.000E+00
276.918	81.0	0.460E-03	0.633E-03	0.472E-02	0.840E-03	0.908E-05	0.122E-06	0.000E+00
278.265	82.0	0.364E-03	0.804E-03	0.453E-02	0.491E-03	0.668E-07	0.680E-07	0.000E+00
279.612	83.0	0.285E-03	0.994E-03	0.427E-02	0.283E-03	0.000E+00	0.315E-07	0.000E+00
280.959	84.0	0.222E-03	0.119E-02	0.394E-02	0.160E-03	0.000E+00	0.000E+00	0.000E+00
282.305	85.0	0.171E-03	0.140E-02	0.354E-02	0.910E-04	0.000E+00	0.000E+00	0.000E+00
283.652	86.0	0.131E-03	0.159E-02	0.312E-02	0.541E-04	0.000E+00	0.000E+00	0.000E+00
284.999	87.0	0.101E-03	0.176E-02	0.269E-02	0.354E-04	0.000E+00	0.000E+00	0.000E+00
286.346	88.0	0.786E-04	0.191E-02	0.225E-02	0.251E-04	0.000E+00	0.000E+00	0.000E+00
287.693	89.0	0.631E-04	0.202E-02	0.184E-02	0.688E-05	0.000E+00	0.000E+00	0.000E+00
289.040	90.0	0.642E-04	0.205E-02	0.185E-02	0.651E-05	0.000E+00	0.000E+00	0.000E+00


