E_lab	E*/MeV	190Bi	191Bi	192Bi	193Bi	194Bi	195Bi	196Bi
212.265	33.0	0.000E+00	0.000E+00	0.171E-09	0.212E-08	0.139E-11	0.838E-09	0.246E-09
213.612	34.0	0.000E+00	0.000E+00	0.106E-08	0.547E-08	0.275E-11	0.332E-08	0.593E-09
214.959	35.0	0.000E+00	0.000E+00	0.195E-06	0.123E-05	0.308E-08	0.463E-06	0.109E-06
216.305	36.0	0.000E+00	0.286E-11	0.231E-05	0.132E-04	0.591E-07	0.455E-05	0.118E-05
217.652	37.0	0.000E+00	0.157E-09	0.117E-04	0.421E-04	0.199E-06	0.186E-04	0.353E-05
218.999	38.0	0.000E+00	0.407E-08	0.524E-04	0.114E-03	0.722E-06	0.707E-04	0.919E-05
220.346	39.0	0.000E+00	0.683E-07	0.219E-03	0.291E-03	0.383E-05	0.260E-03	0.227E-04
221.693	40.0	0.000E+00	0.848E-06	0.860E-03	0.708E-03	0.242E-04	0.920E-03	0.538E-04
223.040	41.0	0.000E+00	0.819E-05	0.308E-02	0.161E-02	0.142E-03	0.303E-02	0.120E-03
224.387	42.0	0.000E+00	0.585E-04	0.929E-02	0.321E-02	0.663E-03	0.850E-02	0.239E-03
225.734	43.0	0.000E+00	0.279E-03	0.212E-01	0.513E-02	0.215E-02	0.182E-01	0.389E-03
227.081	44.0	0.000E+00	0.877E-03	0.351E-01	0.624E-02	0.482E-02	0.285E-01	0.499E-03
228.428	45.0	0.000E+00	0.201E-02	0.457E-01	0.603E-02	0.826E-02	0.354E-01	0.526E-03
229.775	46.0	0.000E+00	0.373E-02	0.506E-01	0.494E-02	0.121E-01	0.377E-01	0.479E-03
231.122	47.0	0.000E+00	0.607E-02	0.505E-01	0.363E-02	0.160E-01	0.366E-01	0.392E-03
232.469	48.0	0.000E+00	0.899E-02	0.471E-01	0.252E-02	0.200E-01	0.334E-01	0.294E-03
233.816	49.0	0.293E-07	0.124E-01	0.417E-01	0.178E-02	0.238E-01	0.292E-01	0.208E-03
235.163	50.0	0.153E-06	0.160E-01	0.354E-01	0.142E-02	0.273E-01	0.247E-01	0.141E-03
236.510	51.0	0.628E-06	0.197E-01	0.292E-01	0.147E-02	0.304E-01	0.203E-01	0.925E-04
237.857	52.0	0.217E-05	0.231E-01	0.233E-01	0.193E-02	0.327E-01	0.163E-01	0.597E-04
239.203	53.0	0.647E-05	0.260E-01	0.181E-01	0.287E-02	0.343E-01	0.128E-01	0.380E-04
240.550	54.0	0.171E-04	0.281E-01	0.138E-01	0.431E-02	0.349E-01	0.989E-02	0.239E-04
241.897	55.0	0.403E-04	0.291E-01	0.103E-01	0.627E-02	0.346E-01	0.750E-02	0.150E-04
243.244	56.0	0.856E-04	0.291E-01	0.756E-02	0.871E-02	0.334E-01	0.560E-02	0.929E-05
244.591	57.0	0.165E-03	0.281E-01	0.545E-02	0.116E-01	0.314E-01	0.412E-02	0.573E-05
245.938	58.0	0.292E-03	0.262E-01	0.388E-02	0.147E-01	0.288E-01	0.300E-02	0.351E-05
247.285	59.0	0.476E-03	0.236E-01	0.273E-02	0.180E-01	0.258E-01	0.215E-02	0.214E-05
248.632	60.0	0.724E-03	0.207E-01	0.190E-02	0.213E-01	0.226E-01	0.153E-02	0.130E-05
249.979	61.0	0.104E-02	0.177E-01	0.133E-02	0.244E-01	0.194E-01	0.107E-02	0.778E-06
251.326	62.0	0.140E-02	0.148E-01	0.957E-03	0.271E-01	0.163E-01	0.749E-03	0.464E-06
252.673	63.0	0.181E-02	0.121E-01	0.742E-03	0.294E-01	0.135E-01	0.517E-03	0.275E-06
254.020	64.0	0.224E-02	0.965E-02	0.669E-03	0.310E-01	0.110E-01	0.355E-03	0.161E-06
255.367	65.0	0.266E-02	0.759E-02	0.727E-03	0.319E-01	0.875E-02	0.242E-03	0.911E-07
256.714	66.0	0.303E-02	0.587E-02	0.918E-03	0.320E-01	0.689E-02	0.164E-03	0.495E-07
258.061	67.0	0.335E-02	0.447E-02	0.124E-02	0.315E-01	0.536E-02	0.110E-03	0.245E-07
259.408	68.0	0.356E-02	0.337E-02	0.169E-02	0.302E-01	0.411E-02	0.735E-04	0.905E-08
260.754	69.0	0.367E-02	0.250E-02	0.227E-02	0.284E-01	0.307E-02	0.488E-04	0.000E+00
262.101	70.0	0.367E-02	0.184E-02	0.295E-02	0.262E-01	0.181E-02	0.322E-04	0.000E+00
263.448	71.0	0.357E-02	0.135E-02	0.371E-02	0.237E-01	0.109E-02	0.212E-04	0.000E+00
264.795	72.0	0.338E-02	0.983E-03	0.452E-02	0.210E-01	0.673E-03	0.138E-04	0.000E+00
266.142	73.0	0.312E-02	0.724E-03	0.535E-02	0.183E-01	0.431E-03	0.899E-05	0.000E+00
267.489	74.0	0.281E-02	0.552E-03	0.616E-02	0.156E-01	0.281E-03	0.581E-05	0.000E+00
268.836	75.0	0.248E-02	0.454E-03	0.690E-02	0.131E-01	0.187E-03	0.374E-05	0.000E+00
270.183	76.0	0.215E-02	0.424E-03	0.753E-02	0.108E-01	0.126E-03	0.239E-05	0.000E+00
271.530	77.0	0.183E-02	0.458E-03	0.803E-02	0.872E-02	0.877E-04	0.152E-05	0.000E+00
272.877	78.0	0.153E-02	0.554E-03	0.838E-02	0.690E-02	0.641E-04	0.958E-06	0.000E+00
274.224	79.0	0.126E-02	0.714E-03	0.854E-02	0.440E-02	0.477E-04	0.599E-06	0.000E+00
275.571	80.0	0.103E-02	0.934E-03	0.854E-02	0.259E-02	0.266E-04	0.371E-06	0.000E+00
276.918	81.0	0.824E-03	0.121E-02	0.836E-02	0.155E-02	0.140E-04	0.224E-06	0.000E+00
278.265	82.0	0.655E-03	0.153E-02	0.804E-02	0.930E-03	0.701E-05	0.131E-06	0.000E+00
279.612	83.0	0.515E-03	0.189E-02	0.758E-02	0.551E-03	0.000E+00	0.727E-07	0.000E+00
280.959	84.0	0.401E-03	0.227E-02	0.701E-02	0.320E-03	0.000E+00	0.196E-07	0.000E+00
282.305	85.0	0.310E-03	0.266E-02	0.631E-02	0.185E-03	0.000E+00	0.000E+00	0.000E+00
283.652	86.0	0.239E-03	0.303E-02	0.556E-02	0.110E-03	0.000E+00	0.000E+00	0.000E+00
284.999	87.0	0.185E-03	0.336E-02	0.480E-02	0.701E-04	0.000E+00	0.000E+00	0.000E+00
286.346	88.0	0.146E-03	0.364E-02	0.404E-02	0.493E-04	0.000E+00	0.000E+00	0.000E+00
287.693	89.0	0.146E-03	0.373E-02	0.406E-02	0.459E-04	0.000E+00	0.000E+00	0.000E+00
289.040	90.0	0.121E-03	0.393E-02	0.332E-02	0.311E-04	0.000E+00	0.000E+00	0.000E+00
