E_lab	E*/MeV	191Po	192Po	193Po	194Po	195Po	196Po	197Po
212.265	33.0	0.000E+00	0.000E+00	0.000E+00	0.767E-13	0.234E-08	0.224E-08	0.987E-12
213.612	34.0	0.000E+00	0.000E+00	0.000E+00	0.298E-11	0.106E-07	0.446E-08	0.158E-11
214.959	35.0	0.000E+00	0.000E+00	0.000E+00	0.655E-10	0.159E-05	0.157E-05	0.289E-08
216.305	36.0	0.000E+00	0.000E+00	0.000E+00	0.135E-08	0.163E-04	0.157E-04	0.517E-07
217.652	37.0	0.000E+00	0.000E+00	0.000E+00	0.183E-07	0.694E-04	0.396E-04	0.122E-06
218.999	38.0	0.000E+00	0.000E+00	0.000E+00	0.221E-06	0.272E-03	0.883E-04	0.227E-06
220.346	39.0	0.000E+00	0.000E+00	0.000E+00	0.229E-05	0.100E-02	0.190E-03	0.402E-06
221.693	40.0	0.000E+00	0.000E+00	0.000E+00	0.199E-04	0.344E-02	0.395E-03	0.696E-06
223.040	41.0	0.000E+00	0.000E+00	0.000E+00	0.140E-03	0.107E-01	0.780E-03	0.116E-05
224.387	42.0	0.000E+00	0.000E+00	0.000E+00	0.748E-03	0.274E-01	0.136E-02	0.175E-05
225.734	43.0	0.000E+00	0.000E+00	0.000E+00	0.270E-02	0.524E-01	0.187E-02	0.218E-05
227.081	44.0	0.000E+00	0.000E+00	0.000E+00	0.651E-02	0.716E-01	0.194E-02	0.209E-05
228.428	45.0	0.000E+00	0.000E+00	0.000E+00	0.117E-01	0.758E-01	0.158E-02	0.154E-05
229.775	46.0	0.000E+00	0.000E+00	0.573E-07	0.176E-01	0.685E-01	0.111E-02	0.897E-06
231.122	47.0	0.000E+00	0.000E+00	0.284E-06	0.236E-01	0.565E-01	0.705E-03	0.297E-06
232.469	48.0	0.000E+00	0.000E+00	0.100E-05	0.291E-01	0.441E-01	0.428E-03	0.000E+00
233.816	49.0	0.000E+00	0.000E+00	0.293E-05	0.334E-01	0.332E-01	0.254E-03	0.000E+00
235.163	50.0	0.000E+00	0.000E+00	0.773E-05	0.360E-01	0.243E-01	0.148E-03	0.000E+00
236.510	51.0	0.000E+00	0.000E+00	0.190E-04	0.367E-01	0.175E-01	0.861E-04	0.000E+00
237.857	52.0	0.000E+00	0.000E+00	0.433E-04	0.357E-01	0.123E-01	0.496E-04	0.000E+00
239.203	53.0	0.000E+00	0.000E+00	0.912E-04	0.331E-01	0.859E-02	0.284E-04	0.000E+00
240.550	54.0	0.000E+00	0.000E+00	0.177E-03	0.296E-01	0.590E-02	0.161E-04	0.000E+00
241.897	55.0	0.000E+00	0.000E+00	0.318E-03	0.255E-01	0.400E-02	0.907E-05	0.000E+00
243.244	56.0	0.000E+00	0.000E+00	0.532E-03	0.213E-01	0.269E-02	0.503E-05	0.000E+00
244.591	57.0	0.000E+00	0.264E-08	0.830E-03	0.174E-01	0.179E-02	0.267E-05	0.000E+00
245.938	58.0	0.000E+00	0.137E-07	0.122E-02	0.138E-01	0.119E-02	0.138E-05	0.000E+00
247.285	59.0	0.000E+00	0.595E-07	0.168E-02	0.107E-01	0.778E-03	0.612E-06	0.000E+00
248.632	60.0	0.000E+00	0.219E-06	0.218E-02	0.821E-02	0.508E-03	0.000E+00	0.000E+00
249.979	61.0	0.000E+00	0.699E-06	0.269E-02	0.617E-02	0.329E-03	0.000E+00	0.000E+00
251.326	62.0	0.000E+00	0.195E-05	0.314E-02	0.457E-02	0.212E-03	0.000E+00	0.000E+00
252.673	63.0	0.000E+00	0.485E-05	0.350E-02	0.334E-02	0.136E-03	0.000E+00	0.000E+00
254.020	64.0	0.000E+00	0.108E-04	0.372E-02	0.241E-02	0.868E-04	0.000E+00	0.000E+00
255.367	65.0	0.000E+00	0.218E-04	0.381E-02	0.172E-02	0.551E-04	0.000E+00	0.000E+00
256.714	66.0	0.000E+00	0.402E-04	0.375E-02	0.122E-02	0.348E-04	0.000E+00	0.000E+00
258.061	67.0	0.000E+00	0.681E-04	0.358E-02	0.858E-03	0.219E-04	0.000E+00	0.000E+00
259.408	68.0	0.000E+00	0.107E-03	0.331E-02	0.598E-03	0.137E-04	0.000E+00	0.000E+00
260.754	69.0	0.532E-09	0.156E-03	0.298E-02	0.414E-03	0.851E-05	0.000E+00	0.000E+00
262.101	70.0	0.173E-08	0.213E-03	0.262E-02	0.285E-03	0.525E-05	0.000E+00	0.000E+00
263.448	71.0	0.501E-08	0.274E-03	0.225E-02	0.195E-03	0.322E-05	0.000E+00	0.000E+00
264.795	72.0	0.135E-07	0.335E-03	0.190E-02	0.132E-03	0.194E-05	0.000E+00	0.000E+00
266.142	73.0	0.347E-07	0.388E-03	0.157E-02	0.895E-04	0.114E-05	0.000E+00	0.000E+00
267.489	74.0	0.849E-07	0.431E-03	0.128E-02	0.602E-04	0.644E-06	0.000E+00	0.000E+00
268.836	75.0	0.197E-06	0.459E-03	0.103E-02	0.403E-04	0.337E-06	0.000E+00	0.000E+00
270.183	76.0	0.427E-06	0.472E-03	0.815E-03	0.269E-04	0.114E-06	0.000E+00	0.000E+00
271.530	77.0	0.864E-06	0.470E-03	0.638E-03	0.179E-04	0.000E+00	0.000E+00	0.000E+00
272.877	78.0	0.163E-05	0.454E-03	0.494E-03	0.118E-04	0.000E+00	0.000E+00	0.000E+00
274.224	79.0	0.288E-05	0.427E-03	0.379E-03	0.774E-05	0.000E+00	0.000E+00	0.000E+00
275.571	80.0	0.477E-05	0.393E-03	0.288E-03	0.507E-05	0.000E+00	0.000E+00	0.000E+00
276.918	81.0	0.742E-05	0.353E-03	0.217E-03	0.329E-05	0.000E+00	0.000E+00	0.000E+00
278.265	82.0	0.109E-04	0.312E-03	0.162E-03	0.212E-05	0.000E+00	0.000E+00	0.000E+00
279.612	83.0	0.152E-04	0.270E-03	0.121E-03	0.135E-05	0.000E+00	0.000E+00	0.000E+00
280.959	84.0	0.201E-04	0.230E-03	0.890E-04	0.843E-06	0.000E+00	0.000E+00	0.000E+00
282.305	85.0	0.254E-04	0.194E-03	0.653E-04	0.510E-06	0.000E+00	0.000E+00	0.000E+00
283.652	86.0	0.308E-04	0.161E-03	0.476E-04	0.304E-06	0.000E+00	0.000E+00	0.000E+00
284.999	87.0	0.359E-04	0.132E-03	0.345E-04	0.153E-06	0.000E+00	0.000E+00	0.000E+00
286.346	88.0	0.404E-04	0.107E-03	0.249E-04	0.534E-07	0.000E+00	0.000E+00	0.000E+00
287.693	89.0	0.440E-04	0.855E-04	0.178E-04	0.000E+00	0.000E+00	0.000E+00	0.000E+00
289.040	90.0	0.465E-04	0.679E-04	0.127E-04	0.000E+00	0.000E+00	0.000E+00	0.000E+00
