E_lab	E*/MeV	146Tm	147Tm	148Tm	149Tm	150Tm	151Tm	152Tm	153Tm	154Tm	155Tm
314.471	27.0	0.000E+00	0.000E+00	0.000E+00	0.000E+00	0.000E+00	0.000E+00	0.000E+00	0.126E-10	0.869E-06	0.266E-06
316.947	28.0	0.000E+00	0.000E+00	0.000E+00	0.000E+00	0.000E+00	0.000E+00	0.000E+00	0.978E-09	0.549E-05	0.110E-05
319.424	29.0	0.000E+00	0.000E+00	0.000E+00	0.000E+00	0.000E+00	0.000E+00	0.000E+00	0.365E-07	0.325E-04	0.433E-05
321.900	30.0	0.000E+00	0.000E+00	0.000E+00	0.000E+00	0.000E+00	0.000E+00	0.000E+00	0.891E-06	0.181E-03	0.161E-04
324.376	31.0	0.000E+00	0.000E+00	0.000E+00	0.000E+00	0.000E+00	0.000E+00	0.000E+00	0.154E-04	0.935E-03	0.571E-04
326.852	32.0	0.000E+00	0.000E+00	0.000E+00	0.000E+00	0.000E+00	0.000E+00	0.000E+00	0.183E-03	0.430E-02	0.187E-03
329.328	33.0	0.000E+00	0.000E+00	0.000E+00	0.000E+00	0.000E+00	0.000E+00	0.000E+00	0.141E-02	0.160E-01	0.547E-03
331.805	34.0	0.000E+00	0.000E+00	0.000E+00	0.000E+00	0.000E+00	0.000E+00	0.000E+00	0.721E-02	0.465E-01	0.136E-02
334.281	35.0	0.000E+00	0.000E+00	0.000E+00	0.000E+00	0.000E+00	0.000E+00	0.000E+00	0.273E-01	0.110E+00	0.297E-02
336.757	36.0	0.000E+00	0.000E+00	0.000E+00	0.000E+00	0.000E+00	0.000E+00	0.000E+00	0.818E-01	0.224E+00	0.583E-02
339.233	37.0	0.000E+00	0.000E+00	0.000E+00	0.000E+00	0.000E+00	0.000E+00	0.000E+00	0.207E+00	0.403E+00	0.105E-01
341.709	38.0	0.000E+00	0.000E+00	0.000E+00	0.000E+00	0.000E+00	0.000E+00	0.261E-06	0.459E+00	0.664E+00	0.176E-01
344.186	39.0	0.000E+00	0.000E+00	0.000E+00	0.000E+00	0.000E+00	0.000E+00	0.737E-05	0.911E+00	0.102E+01	0.280E-01
346.662	40.0	0.000E+00	0.000E+00	0.000E+00	0.000E+00	0.000E+00	0.000E+00	0.940E-04	0.164E+01	0.146E+01	0.428E-01
349.138	41.0	0.000E+00	0.000E+00	0.000E+00	0.000E+00	0.000E+00	0.000E+00	0.742E-03	0.273E+01	0.201E+01	0.629E-01
351.614	42.0	0.000E+00	0.000E+00	0.000E+00	0.000E+00	0.000E+00	0.000E+00	0.414E-02	0.423E+01	0.264E+01	0.896E-01
354.090	43.0	0.000E+00	0.000E+00	0.000E+00	0.000E+00	0.000E+00	0.000E+00	0.173E-01	0.615E+01	0.337E+01	0.122E+00
356.566	44.0	0.000E+00	0.000E+00	0.000E+00	0.000E+00	0.000E+00	0.000E+00	0.570E-01	0.846E+01	0.417E+01	0.163E+00
359.043	45.0	0.000E+00	0.000E+00	0.000E+00	0.000E+00	0.000E+00	0.000E+00	0.154E+00	0.111E+02	0.504E+01	0.208E+00
361.519	46.0	0.000E+00	0.000E+00	0.000E+00	0.000E+00	0.000E+00	0.000E+00	0.351E+00	0.139E+02	0.597E+01	0.257E+00
363.995	47.0	0.000E+00	0.000E+00	0.000E+00	0.000E+00	0.000E+00	0.000E+00	0.699E+00	0.168E+02	0.693E+01	0.304E+00
366.471	48.0	0.000E+00	0.000E+00	0.000E+00	0.000E+00	0.000E+00	0.000E+00	0.124E+01	0.196E+02	0.790E+01	0.346E+00
368.947	49.0	0.000E+00	0.000E+00	0.000E+00	0.000E+00	0.000E+00	0.494E-05	0.201E+01	0.222E+02	0.884E+01	0.379E+00
371.424	50.0	0.000E+00	0.000E+00	0.000E+00	0.000E+00	0.000E+00	0.390E-04	0.301E+01	0.247E+02	0.970E+01	0.398E+00
373.900	51.0	0.000E+00	0.000E+00	0.000E+00	0.000E+00	0.000E+00	0.220E-03	0.421E+01	0.268E+02	0.104E+02	0.401E+00
376.376	52.0	0.000E+00	0.000E+00	0.000E+00	0.000E+00	0.000E+00	0.963E-03	0.557E+01	0.287E+02	0.110E+02	0.387E+00
378.852	53.0	0.000E+00	0.000E+00	0.000E+00	0.000E+00	0.000E+00	0.339E-02	0.703E+01	0.303E+02	0.114E+02	0.360E+00
381.328	54.0	0.000E+00	0.000E+00	0.000E+00	0.000E+00	0.000E+00	0.989E-02	0.853E+01	0.316E+02	0.115E+02	0.321E+00
383.805	55.0	0.000E+00	0.000E+00	0.000E+00	0.000E+00	0.000E+00	0.245E-01	0.100E+02	0.326E+02	0.114E+02	0.276E+00
386.281	56.0	0.000E+00	0.000E+00	0.000E+00	0.000E+00	0.000E+00	0.532E-01	0.114E+02	0.332E+02	0.110E+02	0.229E+00
388.757	57.0	0.000E+00	0.000E+00	0.000E+00	0.000E+00	0.000E+00	0.103E+00	0.126E+02	0.335E+02	0.104E+02	0.183E+00
391.233	58.0	0.000E+00	0.000E+00	0.000E+00	0.000E+00	0.000E+00	0.181E+00	0.137E+02	0.334E+02	0.961E+01	0.142E+00
393.709	59.0	0.000E+00	0.000E+00	0.000E+00	0.000E+00	0.000E+00	0.294E+00	0.146E+02	0.329E+02	0.864E+01	0.107E+00
396.186	60.0	0.000E+00	0.000E+00	0.000E+00	0.000E+00	0.000E+00	0.447E+00	0.153E+02	0.320E+02	0.757E+01	0.778E-01
398.662	61.0	0.000E+00	0.000E+00	0.000E+00	0.000E+00	0.000E+00	0.641E+00	0.159E+02	0.307E+02	0.646E+01	0.552E-01
401.138	62.0	0.000E+00	0.000E+00	0.000E+00	0.000E+00	0.000E+00	0.875E+00	0.163E+02	0.291E+02	0.538E+01	0.382E-01
403.614	63.0	0.000E+00	0.000E+00	0.000E+00	0.000E+00	0.000E+00	0.114E+01	0.165E+02	0.271E+02	0.437E+01	0.259E-01
406.090	64.0	0.000E+00	0.000E+00	0.000E+00	0.000E+00	0.253E-05	0.144E+01	0.166E+02	0.249E+02	0.346E+01	0.171E-01
408.566	65.0	0.000E+00	0.000E+00	0.000E+00	0.000E+00	0.120E-04	0.176E+01	0.166E+02	0.226E+02	0.268E+01	0.111E-01
411.043	66.0	0.000E+00	0.000E+00	0.000E+00	0.000E+00	0.460E-04	0.208E+01	0.164E+02	0.202E+02	0.204E+01	0.706E-02
413.519	67.0	0.000E+00	0.000E+00	0.000E+00	0.000E+00	0.147E-03	0.240E+01	0.161E+02	0.178E+02	0.151E+01	0.442E-02
415.995	68.0	0.000E+00	0.000E+00	0.000E+00	0.000E+00	0.405E-03	0.270E+01	0.157E+02	0.155E+02	0.110E+01	0.273E-02
418.471	69.0	0.000E+00	0.000E+00	0.000E+00	0.000E+00	0.980E-03	0.298E+01	0.152E+02	0.132E+02	0.792E+00	0.166E-02
420.947	70.0	0.000E+00	0.000E+00	0.000E+00	0.000E+00	0.212E-02	0.323E+01	0.145E+02	0.111E+02	0.559E+00	0.994E-03
423.424	71.0	0.000E+00	0.000E+00	0.000E+00	0.000E+00	0.418E-02	0.345E+01	0.138E+02	0.924E+01	0.389E+00	0.589E-03
425.900	72.0	0.000E+00	0.000E+00	0.000E+00	0.000E+00	0.761E-02	0.362E+01	0.130E+02	0.756E+01	0.268E+00	0.344E-03
428.376	73.0	0.000E+00	0.000E+00	0.000E+00	0.000E+00	0.129E-01	0.376E+01	0.121E+02	0.610E+01	0.182E+00	0.199E-03
430.852	74.0	0.000E+00	0.000E+00	0.000E+00	0.000E+00	0.207E-01	0.386E+01	0.111E+02	0.485E+01	0.123E+00	0.113E-03
433.328	75.0	0.000E+00	0.000E+00	0.000E+00	0.000E+00	0.315E-01	0.392E+01	0.102E+02	0.381E+01	0.818E-01	0.633E-04
435.805	76.0	0.000E+00	0.000E+00	0.000E+00	0.000E+00	0.457E-01	0.394E+01	0.919E+01	0.296E+01	0.541E-01	0.346E-04
438.281	77.0	0.000E+00	0.000E+00	0.000E+00	0.000E+00	0.636E-01	0.393E+01	0.823E+01	0.227E+01	0.356E-01	0.183E-04
440.757	78.0	0.000E+00	0.000E+00	0.000E+00	0.113E-05	0.853E-01	0.389E+01	0.729E+01	0.172E+01	0.232E-01	0.872E-05
443.233	79.0	0.000E+00	0.000E+00	0.000E+00	0.366E-05	0.110E+00	0.381E+01	0.639E+01	0.129E+01	0.151E-01	0.332E-05
445.709	80.0	0.000E+00	0.000E+00	0.000E+00	0.104E-04	0.139E+00	0.371E+01	0.555E+01	0.962E+00	0.974E-02	0.000E+00
448.186	81.0	0.000E+00	0.000E+00	0.000E+00	0.260E-04	0.169E+00	0.358E+01	0.477E+01	0.709E+00	0.625E-02	0.000E+00
450.662	82.0	0.000E+00	0.000E+00	0.000E+00	0.591E-04	0.201E+00	0.343E+01	0.405E+01	0.519E+00	0.399E-02	0.000E+00
453.138	83.0	0.000E+00	0.000E+00	0.000E+00	0.123E-03	0.234E+00	0.326E+01	0.341E+01	0.377E+00	0.253E-02	0.000E+00
455.614	84.0	0.000E+00	0.000E+00	0.000E+00	0.237E-03	0.266E+00	0.307E+01	0.284E+01	0.271E+00	0.160E-02	0.000E+00
458.090	85.0	0.000E+00	0.000E+00	0.000E+00	0.429E-03	0.296E+00	0.287E+01	0.235E+01	0.194E+00	0.992E-03	0.000E+00
460.566	86.0	0.000E+00	0.000E+00	0.000E+00	0.733E-03	0.325E+00	0.266E+01	0.192E+01	0.138E+00	0.617E-03	0.000E+00
463.043	87.0	0.000E+00	0.000E+00	0.000E+00	0.119E-02	0.351E+00	0.245E+01	0.155E+01	0.978E-01	0.370E-03	0.000E+00
465.519	88.0	0.000E+00	0.000E+00	0.000E+00	0.184E-02	0.373E+00	0.223E+01	0.125E+01	0.688E-01	0.224E-03	0.000E+00
467.995	89.0	0.000E+00	0.000E+00	0.000E+00	0.273E-02	0.391E+00	0.202E+01	0.993E+00	0.481E-01	0.124E-03	0.000E+00
470.471	90.0	0.000E+00	0.000E+00	0.000E+00	0.391E-02	0.406E+00	0.181E+01	0.784E+00	0.335E-01	0.711E-04	0.000E+00
472.947	91.0	0.000E+00	0.000E+00	0.000E+00	0.540E-02	0.416E+00	0.161E+01	0.614E+00	0.232E-01	0.403E-04	0.000E+00
