E_lab	E*/MeV	192At	193At	194At	195At	196At	197At	198At
204.996	18.0	0.000E+00	0.000E+00	0.000E+00	0.000E+00	0.000E+00	0.714E-11	0.352E-08
206.350	19.0	0.000E+00	0.000E+00	0.000E+00	0.000E+00	0.000E+00	0.141E-09	0.176E-07
207.704	20.0	0.000E+00	0.000E+00	0.000E+00	0.000E+00	0.000E+00	0.200E-08	0.788E-07
209.057	21.0	0.000E+00	0.000E+00	0.000E+00	0.000E+00	0.000E+00	0.218E-07	0.315E-06
210.411	22.0	0.000E+00	0.000E+00	0.000E+00	0.000E+00	0.000E+00	0.192E-06	0.113E-05
211.765	23.0	0.000E+00	0.000E+00	0.000E+00	0.000E+00	0.000E+00	0.137E-05	0.357E-05
213.119	24.0	0.000E+00	0.000E+00	0.000E+00	0.000E+00	0.000E+00	0.743E-05	0.928E-05
214.472	25.0	0.000E+00	0.000E+00	0.000E+00	0.000E+00	0.000E+00	0.287E-04	0.184E-04
215.826	26.0	0.000E+00	0.000E+00	0.000E+00	0.000E+00	0.000E+00	0.826E-04	0.284E-04
217.180	27.0	0.000E+00	0.000E+00	0.000E+00	0.000E+00	0.986E-10	0.193E-03	0.369E-04
218.534	28.0	0.000E+00	0.000E+00	0.000E+00	0.000E+00	0.279E-08	0.375E-03	0.422E-04
219.887	29.0	0.000E+00	0.000E+00	0.000E+00	0.000E+00	0.371E-07	0.616E-03	0.434E-04
221.241	30.0	0.000E+00	0.000E+00	0.000E+00	0.000E+00	0.305E-06	0.885E-03	0.412E-04
222.595	31.0	0.000E+00	0.000E+00	0.000E+00	0.000E+00	0.174E-05	0.113E-02	0.366E-04
223.949	32.0	0.000E+00	0.000E+00	0.000E+00	0.000E+00	0.733E-05	0.131E-02	0.307E-04
225.302	33.0	0.000E+00	0.000E+00	0.000E+00	0.000E+00	0.244E-04	0.139E-02	0.245E-04
226.656	34.0	0.000E+00	0.000E+00	0.000E+00	0.000E+00	0.665E-04	0.136E-02	0.186E-04
228.010	35.0	0.000E+00	0.000E+00	0.000E+00	0.000E+00	0.155E-03	0.125E-02	0.136E-04
229.364	36.0	0.000E+00	0.000E+00	0.000E+00	0.000E+00	0.318E-03	0.109E-02	0.952E-05
230.717	37.0	0.000E+00	0.000E+00	0.000E+00	0.554E-09	0.580E-03	0.897E-03	0.645E-05
232.071	38.0	0.000E+00	0.000E+00	0.000E+00	0.764E-08	0.955E-03	0.709E-03	0.424E-05
233.425	39.0	0.000E+00	0.000E+00	0.000E+00	0.648E-07	0.142E-02	0.538E-03	0.271E-05
234.779	40.0	0.000E+00	0.000E+00	0.000E+00	0.382E-06	0.191E-02	0.393E-03	0.167E-05
236.132	41.0	0.000E+00	0.000E+00	0.000E+00	0.168E-05	0.235E-02	0.279E-03	0.100E-05
237.486	42.0	0.000E+00	0.000E+00	0.000E+00	0.584E-05	0.265E-02	0.192E-03	0.573E-06
238.840	43.0	0.000E+00	0.000E+00	0.000E+00	0.166E-04	0.276E-02	0.128E-03	0.303E-06
240.194	44.0	0.000E+00	0.000E+00	0.000E+00	0.399E-04	0.269E-02	0.840E-04	0.135E-06
241.547	45.0	0.000E+00	0.000E+00	0.000E+00	0.829E-04	0.247E-02	0.538E-04	0.000E+00
242.901	46.0	0.000E+00	0.000E+00	0.000E+00	0.151E-03	0.215E-02	0.338E-04	0.000E+00
244.255	47.0	0.000E+00	0.000E+00	0.000E+00	0.246E-03	0.178E-02	0.209E-04	0.000E+00
245.608	48.0	0.000E+00	0.000E+00	0.000E+00	0.358E-03	0.143E-02	0.127E-04	0.000E+00
246.962	49.0	0.000E+00	0.000E+00	0.262E-09	0.474E-03	0.110E-02	0.756E-05	0.000E+00
248.316	50.0	0.000E+00	0.000E+00	0.183E-08	0.573E-03	0.827E-03	0.445E-05	0.000E+00
249.670	51.0	0.000E+00	0.000E+00	0.973E-08	0.641E-03	0.605E-03	0.258E-05	0.000E+00
251.023	52.0	0.000E+00	0.000E+00	0.411E-07	0.669E-03	0.433E-03	0.147E-05	0.000E+00
252.377	53.0	0.000E+00	0.000E+00	0.142E-06	0.658E-03	0.304E-03	0.804E-06	0.000E+00
253.731	54.0	0.000E+00	0.000E+00	0.418E-06	0.614E-03	0.210E-03	0.433E-06	0.000E+00
255.085	55.0	0.000E+00	0.000E+00	0.106E-05	0.549E-03	0.143E-03	0.206E-06	0.000E+00
256.438	56.0	0.000E+00	0.000E+00	0.238E-05	0.472E-03	0.964E-04	0.717E-07	0.000E+00
257.792	57.0	0.000E+00	0.000E+00	0.477E-05	0.392E-03	0.643E-04	0.000E+00	0.000E+00
259.146	58.0	0.000E+00	0.000E+00	0.866E-05	0.317E-03	0.425E-04	0.000E+00	0.000E+00
260.500	59.0	0.000E+00	0.000E+00	0.144E-04	0.250E-03	0.279E-04	0.000E+00	0.000E+00
261.853	60.0	0.000E+00	0.613E-10	0.219E-04	0.194E-03	0.182E-04	0.000E+00	0.000E+00
263.207	61.0	0.000E+00	0.324E-09	0.309E-04	0.147E-03	0.118E-04	0.000E+00	0.000E+00
264.561	62.0	0.000E+00	0.140E-08	0.407E-04	0.110E-03	0.757E-05	0.000E+00	0.000E+00
265.915	63.0	0.000E+00	0.509E-08	0.501E-04	0.807E-04	0.484E-05	0.000E+00	0.000E+00
267.268	64.0	0.000E+00	0.159E-07	0.581E-04	0.586E-04	0.308E-05	0.000E+00	0.000E+00
268.622	65.0	0.000E+00	0.433E-07	0.639E-04	0.422E-04	0.195E-05	0.000E+00	0.000E+00
269.976	66.0	0.000E+00	0.104E-06	0.671E-04	0.300E-04	0.122E-05	0.000E+00	0.000E+00
271.330	67.0	0.000E+00	0.223E-06	0.675E-04	0.212E-04	0.766E-06	0.000E+00	0.000E+00
272.683	68.0	0.000E+00	0.431E-06	0.654E-04	0.148E-04	0.471E-06	0.000E+00	0.000E+00
274.037	69.0	0.000E+00	0.757E-06	0.613E-04	0.103E-04	0.287E-06	0.000E+00	0.000E+00
275.391	70.0	0.000E+00	0.122E-05	0.558E-04	0.712E-05	0.170E-06	0.000E+00	0.000E+00
276.745	71.0	0.000E+00	0.181E-05	0.495E-04	0.488E-05	0.952E-07	0.000E+00	0.000E+00
278.098	72.0	0.000E+00	0.249E-05	0.428E-04	0.333E-05	0.458E-07	0.000E+00	0.000E+00
279.452	73.0	0.110E-10	0.323E-05	0.363E-04	0.226E-05	0.105E-07	0.000E+00	0.000E+00
280.806	74.0	0.459E-10	0.395E-05	0.302E-04	0.152E-05	0.000E+00	0.000E+00	0.000E+00
282.160	75.0	0.164E-09	0.459E-05	0.248E-04	0.102E-05	0.000E+00	0.000E+00	0.000E+00
283.513	76.0	0.515E-09	0.509E-05	0.200E-04	0.682E-06	0.000E+00	0.000E+00	0.000E+00
284.867	77.0	0.143E-08	0.542E-05	0.159E-04	0.452E-06	0.000E+00	0.000E+00	0.000E+00
286.221	78.0	0.356E-08	0.557E-05	0.125E-04	0.298E-06	0.000E+00	0.000E+00	0.000E+00
287.574	79.0	0.803E-08	0.553E-05	0.970E-05	0.194E-06	0.000E+00	0.000E+00	0.000E+00
288.928	80.0	0.166E-07	0.533E-05	0.746E-05	0.126E-06	0.000E+00	0.000E+00	0.000E+00
290.282	81.0	0.315E-07	0.501E-05	0.569E-05	0.794E-07	0.000E+00	0.000E+00	0.000E+00
291.636	82.0	0.554E-07	0.460E-05	0.430E-05	0.468E-07	0.000E+00	0.000E+00	0.000E+00
292.989	83.0	0.908E-07	0.414E-05	0.322E-05	0.257E-07	0.000E+00	0.000E+00	0.000E+00
294.343	84.0	0.140E-06	0.365E-05	0.240E-05	0.116E-07	0.000E+00	0.000E+00	0.000E+00
295.697	85.0	0.202E-06	0.316E-05	0.178E-05	0.303E-08	0.000E+00	0.000E+00	0.000E+00
297.051	86.0	0.277E-06	0.269E-05	0.131E-05	0.000E+00	0.000E+00	0.000E+00	0.000E+00
298.404	87.0	0.362E-06	0.226E-05	0.954E-06	0.000E+00	0.000E+00	0.000E+00	0.000E+00
299.758	88.0	0.451E-06	0.188E-05	0.694E-06	0.000E+00	0.000E+00	0.000E+00	0.000E+00
301.112	89.0	0.539E-06	0.154E-05	0.501E-06	0.000E+00	0.000E+00	0.000E+00	0.000E+00
302.466	90.0	0.620E-06	0.125E-05	0.361E-06	0.000E+00	0.000E+00	0.000E+00	0.000E+00
303.819	91.0	0.690E-06	0.100E-05	0.258E-06	0.000E+00	0.000E+00	0.000E+00	0.000E+00
