E_lab	E*/MeV	183Bi	184Bi	185Bi	186Bi	187Bi	188Bi	189Bi	190Bi	191Bi	192Bi	193Bi
236.199	32.0	0.000E+00	0.000E+00	0.000E+00	0.000E+00	0.000E+00	0.000E+00	0.109E-11	0.127E-09	0.106E-12	0.441E-10	0.824E-10
237.582	33.0	0.000E+00	0.000E+00	0.000E+00	0.000E+00	0.000E+00	0.000E+00	0.846E-11	0.348E-09	0.175E-12	0.209E-09	0.197E-09
238.965	34.0	0.000E+00	0.000E+00	0.000E+00	0.000E+00	0.000E+00	0.000E+00	0.217E-08	0.866E-07	0.338E-09	0.340E-07	0.659E-07
240.348	35.0	0.000E+00	0.000E+00	0.000E+00	0.000E+00	0.000E+00	0.000E+00	0.253E-07	0.665E-06	0.365E-08	0.301E-06	0.520E-06
241.731	36.0	0.000E+00	0.000E+00	0.000E+00	0.000E+00	0.000E+00	0.000E+00	0.153E-06	0.197E-05	0.851E-08	0.134E-05	0.144E-05
243.114	37.0	0.000E+00	0.000E+00	0.000E+00	0.000E+00	0.000E+00	0.000E+00	0.822E-06	0.513E-05	0.204E-07	0.558E-05	0.363E-05
244.497	38.0	0.000E+00	0.000E+00	0.000E+00	0.000E+00	0.000E+00	0.000E+00	0.404E-05	0.127E-04	0.819E-07	0.222E-04	0.876E-05
245.880	39.0	0.000E+00	0.000E+00	0.000E+00	0.000E+00	0.000E+00	0.000E+00	0.182E-04	0.297E-04	0.518E-06	0.832E-04	0.204E-04
247.263	40.0	0.000E+00	0.000E+00	0.000E+00	0.000E+00	0.000E+00	0.145E-09	0.725E-04	0.653E-04	0.342E-05	0.286E-03	0.446E-04
248.646	41.0	0.000E+00	0.000E+00	0.000E+00	0.000E+00	0.000E+00	0.220E-08	0.238E-03	0.126E-03	0.185E-04	0.836E-03	0.864E-04
250.029	42.0	0.000E+00	0.000E+00	0.000E+00	0.000E+00	0.000E+00	0.191E-07	0.574E-03	0.196E-03	0.706E-04	0.185E-02	0.134E-03
251.412	43.0	0.000E+00	0.000E+00	0.000E+00	0.000E+00	0.000E+00	0.100E-06	0.975E-03	0.231E-03	0.167E-03	0.295E-02	0.156E-03
252.795	44.0	0.000E+00	0.000E+00	0.000E+00	0.000E+00	0.000E+00	0.361E-06	0.125E-02	0.216E-03	0.334E-03	0.363E-02	0.143E-03
254.178	45.0	0.000E+00	0.000E+00	0.000E+00	0.000E+00	0.000E+00	0.102E-05	0.132E-02	0.170E-03	0.556E-03	0.378E-02	0.111E-03
255.561	46.0	0.000E+00	0.000E+00	0.000E+00	0.000E+00	0.000E+00	0.247E-05	0.124E-02	0.121E-03	0.830E-03	0.358E-02	0.780E-04
256.944	47.0	0.000E+00	0.000E+00	0.000E+00	0.000E+00	0.000E+00	0.526E-05	0.108E-02	0.812E-04	0.115E-02	0.319E-02	0.520E-04
258.327	48.0	0.000E+00	0.000E+00	0.000E+00	0.000E+00	0.000E+00	0.101E-04	0.891E-03	0.523E-04	0.150E-02	0.272E-02	0.336E-04
259.710	49.0	0.000E+00	0.000E+00	0.000E+00	0.000E+00	0.000E+00	0.179E-04	0.707E-03	0.330E-04	0.187E-02	0.224E-02	0.214E-04
261.093	50.0	0.000E+00	0.000E+00	0.000E+00	0.000E+00	0.000E+00	0.291E-04	0.543E-03	0.207E-04	0.222E-02	0.180E-02	0.134E-04
262.476	51.0	0.000E+00	0.000E+00	0.000E+00	0.000E+00	0.000E+00	0.440E-04	0.406E-03	0.133E-04	0.252E-02	0.141E-02	0.835E-05
263.859	52.0	0.000E+00	0.000E+00	0.000E+00	0.000E+00	0.113E-08	0.625E-04	0.297E-03	0.940E-05	0.275E-02	0.108E-02	0.516E-05
265.242	53.0	0.000E+00	0.000E+00	0.000E+00	0.000E+00	0.435E-08	0.833E-04	0.213E-03	0.855E-05	0.288E-02	0.815E-03	0.317E-05
266.625	54.0	0.000E+00	0.000E+00	0.000E+00	0.000E+00	0.145E-07	0.105E-03	0.150E-03	0.108E-04	0.290E-02	0.604E-03	0.193E-05
268.008	55.0	0.000E+00	0.000E+00	0.000E+00	0.000E+00	0.427E-07	0.124E-03	0.105E-03	0.168E-04	0.282E-02	0.440E-03	0.117E-05
269.391	56.0	0.000E+00	0.000E+00	0.000E+00	0.000E+00	0.112E-06	0.138E-03	0.720E-04	0.275E-04	0.266E-02	0.317E-03	0.702E-06
270.774	57.0	0.000E+00	0.000E+00	0.000E+00	0.000E+00	0.265E-06	0.147E-03	0.490E-04	0.441E-04	0.242E-02	0.225E-03	0.418E-06
272.157	58.0	0.000E+00	0.000E+00	0.000E+00	0.000E+00	0.568E-06	0.149E-03	0.330E-04	0.675E-04	0.215E-02	0.158E-03	0.246E-06
273.540	59.0	0.000E+00	0.000E+00	0.000E+00	0.000E+00	0.111E-05	0.144E-03	0.220E-04	0.984E-04	0.186E-02	0.110E-03	0.141E-06
274.923	60.0	0.000E+00	0.000E+00	0.000E+00	0.000E+00	0.201E-05	0.134E-03	0.146E-04	0.137E-03	0.157E-02	0.760E-04	0.784E-07
276.306	61.0	0.000E+00	0.000E+00	0.000E+00	0.000E+00	0.334E-05	0.120E-03	0.971E-05	0.181E-03	0.129E-02	0.520E-04	0.412E-07
277.689	62.0	0.000E+00	0.000E+00	0.000E+00	0.000E+00	0.515E-05	0.105E-03	0.650E-05	0.231E-03	0.105E-02	0.353E-04	0.151E-07
279.071	63.0	0.000E+00	0.000E+00	0.000E+00	0.000E+00	0.741E-05	0.891E-04	0.456E-05	0.281E-03	0.834E-03	0.238E-04	0.000E+00
280.454	64.0	0.000E+00	0.000E+00	0.000E+00	0.000E+00	0.997E-05	0.737E-04	0.363E-05	0.330E-03	0.653E-03	0.159E-04	0.000E+00
281.837	65.0	0.000E+00	0.000E+00	0.000E+00	0.812E-10	0.126E-04	0.597E-04	0.365E-05	0.372E-03	0.504E-03	0.106E-04	0.000E+00
283.220	66.0	0.000E+00	0.000E+00	0.000E+00	0.278E-09	0.150E-04	0.475E-04	0.470E-05	0.405E-03	0.384E-03	0.698E-05	0.000E+00
284.603	67.0	0.000E+00	0.000E+00	0.000E+00	0.844E-09	0.170E-04	0.371E-04	0.697E-05	0.427E-03	0.289E-03	0.459E-05	0.000E+00
285.986	68.0	0.000E+00	0.000E+00	0.000E+00	0.231E-08	0.184E-04	0.285E-04	0.107E-04	0.436E-03	0.215E-03	0.299E-05	0.000E+00
287.369	69.0	0.000E+00	0.000E+00	0.000E+00	0.573E-08	0.190E-04	0.217E-04	0.163E-04	0.432E-03	0.159E-03	0.194E-05	0.000E+00
288.752	70.0	0.000E+00	0.000E+00	0.000E+00	0.130E-07	0.189E-04	0.163E-04	0.237E-04	0.417E-03	0.116E-03	0.125E-05	0.000E+00
290.135	71.0	0.000E+00	0.000E+00	0.000E+00	0.271E-07	0.181E-04	0.121E-04	0.330E-04	0.392E-03	0.840E-04	0.799E-06	0.000E+00
291.518	72.0	0.000E+00	0.000E+00	0.000E+00	0.522E-07	0.169E-04	0.886E-05	0.441E-04	0.361E-03	0.480E-04	0.508E-06	0.000E+00
292.901	73.0	0.000E+00	0.000E+00	0.000E+00	0.935E-07	0.153E-04	0.646E-05	0.564E-04	0.324E-03	0.271E-04	0.320E-06	0.000E+00
294.284	74.0	0.000E+00	0.000E+00	0.000E+00	0.157E-06	0.135E-04	0.468E-05	0.692E-04	0.286E-03	0.163E-04	0.200E-06	0.000E+00
295.667	75.0	0.000E+00	0.000E+00	0.000E+00	0.246E-06	0.117E-04	0.337E-05	0.816E-04	0.248E-03	0.100E-04	0.123E-06	0.000E+00
297.050	76.0	0.000E+00	0.000E+00	0.000E+00	0.365E-06	0.993E-05	0.243E-05	0.929E-04	0.211E-03	0.636E-05	0.728E-07	0.000E+00
298.433	77.0	0.000E+00	0.000E+00	0.000E+00	0.513E-06	0.828E-05	0.177E-05	0.102E-03	0.177E-03	0.429E-05	0.424E-07	0.000E+00
299.816	78.0	0.000E+00	0.000E+00	0.422E-10	0.682E-06	0.679E-05	0.134E-05	0.109E-03	0.146E-03	0.327E-05	0.222E-07	0.000E+00
301.199	79.0	0.000E+00	0.000E+00	0.116E-09	0.865E-06	0.548E-05	0.110E-05	0.113E-03	0.118E-03	0.869E-06	0.767E-08	0.000E+00
302.582	80.0	0.000E+00	0.000E+00	0.291E-09	0.105E-05	0.438E-05	0.104E-05	0.114E-03	0.937E-04	0.000E+00	0.000E+00	0.000E+00
303.965	81.0	0.000E+00	0.000E+00	0.670E-09	0.122E-05	0.345E-05	0.114E-05	0.112E-03	0.726E-04	0.000E+00	0.000E+00	0.000E+00
305.348	82.0	0.000E+00	0.000E+00	0.143E-08	0.136E-05	0.269E-05	0.142E-05	0.107E-03	0.543E-04	0.000E+00	0.000E+00	0.000E+00
306.731	83.0	0.000E+00	0.000E+00	0.271E-08	0.146E-05	0.208E-05	0.187E-05	0.101E-03	0.352E-04	0.000E+00	0.000E+00	0.000E+00
308.114	84.0	0.000E+00	0.000E+00	0.500E-08	0.153E-05	0.159E-05	0.251E-05	0.930E-04	0.162E-04	0.000E+00	0.000E+00	0.000E+00
309.497	85.0	0.000E+00	0.000E+00	0.862E-08	0.155E-05	0.121E-05	0.332E-05	0.842E-04	0.790E-05	0.000E+00	0.000E+00	0.000E+00
310.880	86.0	0.000E+00	0.000E+00	0.140E-07	0.153E-05	0.915E-06	0.429E-05	0.750E-04	0.403E-05	0.000E+00	0.000E+00	0.000E+00
312.263	87.0	0.000E+00	0.000E+00	0.213E-07	0.148E-05	0.688E-06	0.538E-05	0.656E-04	0.211E-05	0.000E+00	0.000E+00	0.000E+00
313.646	88.0	0.000E+00	0.000E+00	0.317E-07	0.140E-05	0.517E-06	0.655E-05	0.562E-04	0.113E-05	0.000E+00	0.000E+00	0.000E+00
315.029	89.0	0.000E+00	0.000E+00	0.000E+00	0.000E+00	0.000E+00	0.000E+00	0.000E+00	0.000E+00	0.000E+00	0.000E+00	0.000E+00
316.412	90.0	0.000E+00	0.000E+00	0.000E+00	0.000E+00	0.000E+00	0.000E+00	0.000E+00	0.000E+00	0.000E+00	0.000E+00	0.000E+00
