E_lab	E*/MeV	255Md	256Md	257Md	258Md	259Md	260Md	261Md
65.682	26.0	0.000E+00	0.000E+00	0.893E-15	0.598E-13	0.814E-15	0.000E+00	0.384E-20
66.743	27.0	0.000E+00	0.000E+00	0.137E-13	0.438E-12	0.228E-14	0.000E+00	0.723E-19
67.803	28.0	0.000E+00	0.000E+00	0.172E-12	0.272E-11	0.595E-14	0.137E-22	0.108E-17
68.864	29.0	0.000E+00	0.000E+00	0.180E-11	0.143E-10	0.146E-13	0.196E-20	0.132E-16
69.924	30.0	0.000E+00	0.356E-16	0.160E-10	0.630E-10	0.338E-13	0.907E-19	0.132E-15
70.985	31.0	0.000E+00	0.286E-14	0.121E-09	0.236E-09	0.739E-13	0.266E-17	0.109E-14
72.045	32.0	0.000E+00	0.935E-13	0.782E-09	0.750E-09	0.149E-12	0.554E-16	0.741E-14
73.106	33.0	0.000E+00	0.171E-11	0.414E-08	0.200E-08	0.253E-12	0.835E-15	0.402E-13
74.166	34.0	0.000E+00	0.196E-10	0.169E-07	0.430E-08	0.160E-12	0.893E-14	0.166E-12
75.227	35.0	0.000E+00	0.154E-09	0.524E-07	0.737E-08	0.000E+00	0.685E-13	0.509E-12
76.287	36.0	0.000E+00	0.898E-09	0.125E-06	0.104E-07	0.000E+00	0.395E-12	0.121E-11
77.348	37.0	0.138E-12	0.408E-08	0.239E-06	0.126E-07	0.000E+00	0.178E-11	0.230E-11
78.408	38.0	0.235E-11	0.150E-07	0.378E-06	0.135E-07	0.000E+00	0.645E-11	0.366E-11
79.469	39.0	0.230E-10	0.459E-07	0.507E-06	0.130E-07	0.000E+00	0.194E-10	0.497E-11
80.529	40.0	0.153E-09	0.119E-06	0.595E-06	0.114E-07	0.000E+00	0.488E-10	0.593E-11
81.590	41.0	0.758E-09	0.264E-06	0.621E-06	0.936E-08	0.000E+00	0.105E-09	0.632E-11
82.650	42.0	0.299E-08	0.504E-06	0.587E-06	0.717E-08	0.000E+00	0.193E-09	0.610E-11
83.710	43.0	0.975E-08	0.839E-06	0.507E-06	0.516E-08	0.000E+00	0.309E-09	0.539E-11
84.771	44.0	0.269E-07	0.122E-05	0.405E-06	0.351E-08	0.000E+00	0.433E-09	0.441E-11
85.831	45.0	0.636E-07	0.158E-05	0.302E-06	0.225E-08	0.000E+00	0.539E-09	0.337E-11
86.892	46.0	0.131E-06	0.182E-05	0.212E-06	0.136E-08	0.000E+00	0.602E-09	0.243E-11
87.952	47.0	0.239E-06	0.191E-05	0.142E-06	0.727E-09	0.000E+00	0.613E-09	0.167E-11
89.013	48.0	0.388E-06	0.184E-05	0.914E-07	0.205E-09	0.000E+00	0.577E-09	0.110E-11
90.073	49.0	0.567E-06	0.166E-05	0.570E-07	0.000E+00	0.000E+00	0.506E-09	0.698E-12
91.134	50.0	0.755E-06	0.141E-05	0.346E-07	0.000E+00	0.000E+00	0.420E-09	0.417E-12
92.194	51.0	0.922E-06	0.113E-05	0.207E-07	0.000E+00	0.000E+00	0.331E-09	0.230E-12
93.255	52.0	0.104E-05	0.875E-06	0.122E-07	0.000E+00	0.000E+00	0.251E-09	0.504E-13
94.315	53.0	0.110E-05	0.653E-06	0.707E-08	0.000E+00	0.000E+00	0.184E-09	0.000E+00
95.376	54.0	0.109E-05	0.473E-06	0.403E-08	0.000E+00	0.000E+00	0.131E-09	0.000E+00
96.436	55.0	0.103E-05	0.334E-06	0.226E-08	0.000E+00	0.000E+00	0.908E-10	0.000E+00
97.497	56.0	0.925E-06	0.231E-06	0.122E-08	0.102E-09	0.000E+00	0.618E-10	0.000E+00
98.557	57.0	0.798E-06	0.157E-06	0.522E-09	0.218E-09	0.000E+00	0.414E-10	0.000E+00
99.618	58.0	0.665E-06	0.105E-06	0.101E-09	0.427E-09	0.000E+00	0.273E-10	0.000E+00
100.678	59.0	0.537E-06	0.698E-07	0.000E+00	0.533E-09	0.000E+00	0.178E-10	0.000E+00
101.739	60.0	0.422E-06	0.457E-07	0.000E+00	0.705E-09	0.000E+00	0.114E-10	0.000E+00
102.799	61.0	0.324E-06	0.297E-07	0.293E-10	0.787E-09	0.000E+00	0.729E-11	0.000E+00
103.860	62.0	0.244E-06	0.191E-07	0.715E-10	0.842E-09	0.000E+00	0.455E-11	0.000E+00
104.920	63.0	0.180E-06	0.122E-07	0.212E-09	0.866E-09	0.000E+00	0.281E-11	0.000E+00
105.981	64.0	0.131E-06	0.778E-08	0.340E-09	0.839E-09	0.000E+00	0.168E-11	0.000E+00
107.041	65.0	0.938E-07	0.491E-08	0.486E-09	0.739E-09	0.000E+00	0.800E-12	0.000E+00
108.102	66.0	0.664E-07	0.308E-08	0.659E-09	0.544E-09	0.000E+00	0.179E-12	0.000E+00
109.162	67.0	0.465E-07	0.191E-08	0.115E-08	0.000E+00	0.000E+00	0.000E+00	0.000E+00
110.223	68.0	0.323E-07	0.117E-08	0.152E-08	0.000E+00	0.000E+00	0.000E+00	0.000E+00
111.283	69.0	0.222E-07	0.692E-09	0.187E-08	0.000E+00	0.000E+00	0.000E+00	0.000E+00
112.344	70.0	0.151E-07	0.433E-09	0.198E-08	0.000E+00	0.000E+00	0.000E+00	0.000E+00
113.404	71.0	0.102E-07	0.234E-09	0.186E-08	0.000E+00	0.000E+00	0.000E+00	0.000E+00
114.465	72.0	0.690E-08	0.123E-09	0.169E-08	0.000E+00	0.000E+00	0.000E+00	0.000E+00
115.525	73.0	0.461E-08	0.130E-09	0.149E-08	0.000E+00	0.000E+00	0.000E+00	0.000E+00
116.585	74.0	0.307E-08	0.178E-09	0.860E-09	0.000E+00	0.000E+00	0.000E+00	0.000E+00
117.646	75.0	0.203E-08	0.232E-09	0.764E-09	0.000E+00	0.000E+00	0.000E+00	0.000E+00
118.706	76.0	0.134E-08	0.307E-09	0.613E-09	0.000E+00	0.000E+00	0.000E+00	0.000E+00
119.767	77.0	0.892E-09	0.473E-09	0.249E-09	0.000E+00	0.000E+00	0.000E+00	0.000E+00
120.827	78.0	0.583E-09	0.693E-09	0.000E+00	0.000E+00	0.000E+00	0.000E+00	0.000E+00
121.888	79.0	0.418E-09	0.779E-09	0.000E+00	0.000E+00	0.000E+00	0.000E+00	0.000E+00
122.948	80.0	0.315E-09	0.897E-09	0.000E+00	0.000E+00	0.000E+00	0.000E+00	0.000E+00
124.009	81.0	0.229E-09	0.878E-09	0.000E+00	0.000E+00	0.000E+00	0.000E+00	0.000E+00
125.069	82.0	0.194E-09	0.899E-09	0.000E+00	0.000E+00	0.000E+00	0.000E+00	0.000E+00
126.130	83.0	0.227E-09	0.765E-09	0.000E+00	0.000E+00	0.000E+00	0.000E+00	0.000E+00
127.190	84.0	0.377E-09	0.592E-09	0.000E+00	0.000E+00	0.000E+00	0.000E+00	0.000E+00
128.251	85.0	0.441E-09	0.453E-09	0.000E+00	0.000E+00	0.000E+00	0.000E+00	0.000E+00
129.311	86.0	0.543E-09	0.418E-09	0.000E+00	0.000E+00	0.000E+00	0.000E+00	0.000E+00
130.372	87.0	0.647E-09	0.316E-09	0.000E+00	0.000E+00	0.000E+00	0.000E+00	0.000E+00
131.432	88.0	0.657E-09	0.244E-09	0.000E+00	0.000E+00	0.000E+00	0.000E+00	0.000E+00
132.493	89.0	0.693E-09	0.127E-09	0.000E+00	0.000E+00	0.000E+00	0.000E+00	0.000E+00
133.553	90.0	0.616E-09	0.000E+00	0.000E+00	0.000E+00	0.000E+00	0.000E+00	0.000E+00
134.614	91.0	0.468E-09	0.000E+00	0.000E+00	0.000E+00	0.000E+00	0.000E+00	0.000E+00
