E_lab	E*/MeV	192At	193At	194At	195At	196At	197At	198At
212.265	33.0	0.000E+00	0.000E+00	0.000E+00	0.191E-09	0.585E-09	0.272E-13	0.000E+00
213.612	34.0	0.000E+00	0.000E+00	0.000E+00	0.111E-08	0.111E-08	0.419E-13	0.000E+00
214.959	35.0	0.000E+00	0.000E+00	0.000E+00	0.174E-06	0.192E-06	0.816E-10	0.000E+00
216.305	36.0	0.000E+00	0.000E+00	0.000E+00	0.192E-05	0.196E-05	0.112E-08	0.000E+00
217.652	37.0	0.000E+00	0.000E+00	0.000E+00	0.804E-05	0.447E-05	0.174E-08	0.000E+00
218.999	38.0	0.000E+00	0.000E+00	0.000E+00	0.282E-04	0.912E-05	0.000E+00	0.000E+00
220.346	39.0	0.000E+00	0.000E+00	0.000E+00	0.876E-04	0.181E-04	0.000E+00	0.000E+00
221.693	40.0	0.000E+00	0.000E+00	0.140E-09	0.246E-03	0.349E-04	0.000E+00	0.000E+00
223.040	41.0	0.000E+00	0.000E+00	0.946E-08	0.615E-03	0.641E-04	0.000E+00	0.000E+00
224.387	42.0	0.000E+00	0.000E+00	0.239E-06	0.128E-02	0.104E-03	0.000E+00	0.000E+00
225.734	43.0	0.000E+00	0.000E+00	0.256E-05	0.199E-02	0.133E-03	0.000E+00	0.000E+00
227.081	44.0	0.000E+00	0.000E+00	0.131E-04	0.225E-02	0.128E-03	0.000E+00	0.000E+00
228.428	45.0	0.000E+00	0.000E+00	0.404E-04	0.199E-02	0.981E-04	0.000E+00	0.000E+00
229.775	46.0	0.000E+00	0.000E+00	0.918E-04	0.152E-02	0.650E-04	0.000E+00	0.000E+00
231.122	47.0	0.000E+00	0.000E+00	0.172E-03	0.107E-02	0.396E-04	0.000E+00	0.000E+00
232.469	48.0	0.000E+00	0.000E+00	0.277E-03	0.715E-03	0.231E-04	0.000E+00	0.000E+00
233.816	49.0	0.000E+00	0.000E+00	0.390E-03	0.467E-03	0.132E-04	0.000E+00	0.000E+00
235.163	50.0	0.000E+00	0.272E-09	0.489E-03	0.300E-03	0.739E-05	0.000E+00	0.000E+00
236.510	51.0	0.000E+00	0.340E-08	0.555E-03	0.190E-03	0.409E-05	0.000E+00	0.000E+00
237.857	52.0	0.000E+00	0.253E-07	0.579E-03	0.120E-03	0.219E-05	0.000E+00	0.000E+00
239.203	53.0	0.000E+00	0.126E-06	0.564E-03	0.747E-04	0.113E-05	0.000E+00	0.000E+00
240.550	54.0	0.000E+00	0.459E-06	0.519E-03	0.464E-04	0.484E-06	0.000E+00	0.000E+00
241.897	55.0	0.000E+00	0.131E-05	0.455E-03	0.287E-04	0.000E+00	0.000E+00	0.000E+00
243.244	56.0	0.000E+00	0.305E-05	0.383E-03	0.177E-04	0.000E+00	0.000E+00	0.000E+00
244.591	57.0	0.000E+00	0.597E-05	0.312E-03	0.108E-04	0.000E+00	0.000E+00	0.000E+00
245.938	58.0	0.000E+00	0.100E-04	0.247E-03	0.663E-05	0.000E+00	0.000E+00	0.000E+00
247.285	59.0	0.000E+00	0.148E-04	0.191E-03	0.404E-05	0.000E+00	0.000E+00	0.000E+00
248.632	60.0	0.000E+00	0.196E-04	0.144E-03	0.244E-05	0.000E+00	0.000E+00	0.000E+00
249.979	61.0	0.000E+00	0.237E-04	0.107E-03	0.148E-05	0.000E+00	0.000E+00	0.000E+00
251.326	62.0	0.158E-10	0.265E-04	0.784E-04	0.868E-06	0.000E+00	0.000E+00	0.000E+00
252.673	63.0	0.128E-09	0.278E-04	0.565E-04	0.501E-06	0.000E+00	0.000E+00	0.000E+00
254.020	64.0	0.743E-09	0.276E-04	0.403E-04	0.277E-06	0.000E+00	0.000E+00	0.000E+00
255.367	65.0	0.325E-08	0.261E-04	0.285E-04	0.127E-06	0.000E+00	0.000E+00	0.000E+00
256.714	66.0	0.112E-07	0.238E-04	0.199E-04	0.431E-07	0.000E+00	0.000E+00	0.000E+00
258.061	67.0	0.321E-07	0.210E-04	0.138E-04	0.000E+00	0.000E+00	0.000E+00	0.000E+00
259.408	68.0	0.781E-07	0.180E-04	0.952E-05	0.000E+00	0.000E+00	0.000E+00	0.000E+00
260.754	69.0	0.166E-06	0.150E-04	0.652E-05	0.000E+00	0.000E+00	0.000E+00	0.000E+00
262.101	70.0	0.314E-06	0.122E-04	0.444E-05	0.000E+00	0.000E+00	0.000E+00	0.000E+00
263.448	71.0	0.533E-06	0.980E-05	0.301E-05	0.000E+00	0.000E+00	0.000E+00	0.000E+00
264.795	72.0	0.822E-06	0.772E-05	0.203E-05	0.000E+00	0.000E+00	0.000E+00	0.000E+00
266.142	73.0	0.116E-05	0.599E-05	0.136E-05	0.000E+00	0.000E+00	0.000E+00	0.000E+00
267.489	74.0	0.152E-05	0.458E-05	0.913E-06	0.000E+00	0.000E+00	0.000E+00	0.000E+00
268.836	75.0	0.187E-05	0.347E-05	0.608E-06	0.000E+00	0.000E+00	0.000E+00	0.000E+00
270.183	76.0	0.217E-05	0.260E-05	0.403E-06	0.000E+00	0.000E+00	0.000E+00	0.000E+00
271.530	77.0	0.239E-05	0.193E-05	0.265E-06	0.000E+00	0.000E+00	0.000E+00	0.000E+00
272.877	78.0	0.252E-05	0.142E-05	0.173E-06	0.000E+00	0.000E+00	0.000E+00	0.000E+00
274.224	79.0	0.256E-05	0.103E-05	0.113E-06	0.000E+00	0.000E+00	0.000E+00	0.000E+00
275.571	80.0	0.251E-05	0.750E-06	0.707E-07	0.000E+00	0.000E+00	0.000E+00	0.000E+00
276.918	81.0	0.239E-05	0.540E-06	0.446E-07	0.000E+00	0.000E+00	0.000E+00	0.000E+00
278.265	82.0	0.222E-05	0.387E-06	0.247E-07	0.000E+00	0.000E+00	0.000E+00	0.000E+00
279.612	83.0	0.201E-05	0.276E-06	0.115E-07	0.000E+00	0.000E+00	0.000E+00	0.000E+00
280.959	84.0	0.178E-05	0.196E-06	0.251E-08	0.000E+00	0.000E+00	0.000E+00	0.000E+00
282.305	85.0	0.155E-05	0.138E-06	0.000E+00	0.000E+00	0.000E+00	0.000E+00	0.000E+00
283.652	86.0	0.132E-05	0.972E-07	0.000E+00	0.000E+00	0.000E+00	0.000E+00	0.000E+00
284.999	87.0	0.111E-05	0.679E-07	0.000E+00	0.000E+00	0.000E+00	0.000E+00	0.000E+00
286.346	88.0	0.925E-06	0.474E-07	0.000E+00	0.000E+00	0.000E+00	0.000E+00	0.000E+00
287.693	89.0	0.759E-06	0.327E-07	0.000E+00	0.000E+00	0.000E+00	0.000E+00	0.000E+00
289.040	90.0	0.615E-06	0.222E-07	0.000E+00	0.000E+00	0.000E+00	0.000E+00	0.000E+00
