E_lab	E*/MeV	195At	196At	197At	198At	199At	200At	201At
171.399	30.0	0.000E+00	0.000E+00	0.000E+00	0.263E-09	0.400E-06	0.911E-08	0.974E-12
172.687	31.0	0.000E+00	0.000E+00	0.000E+00	0.857E-08	0.177E-05	0.262E-07	0.000E+00
173.976	32.0	0.000E+00	0.000E+00	0.000E+00	0.148E-06	0.716E-05	0.723E-07	0.000E+00
175.264	33.0	0.000E+00	0.000E+00	0.000E+00	0.162E-05	0.265E-04	0.191E-06	0.000E+00
176.553	34.0	0.000E+00	0.000E+00	0.000E+00	0.129E-04	0.887E-04	0.479E-06	0.000E+00
177.841	35.0	0.000E+00	0.000E+00	0.000E+00	0.747E-04	0.251E-03	0.107E-05	0.000E+00
179.130	36.0	0.000E+00	0.000E+00	0.000E+00	0.299E-03	0.541E-03	0.196E-05	0.000E+00
180.418	37.0	0.000E+00	0.000E+00	0.134E-09	0.851E-03	0.869E-03	0.277E-05	0.000E+00
181.707	38.0	0.000E+00	0.000E+00	0.152E-07	0.193E-02	0.112E-02	0.313E-05	0.000E+00
182.995	39.0	0.000E+00	0.000E+00	0.421E-06	0.378E-02	0.125E-02	0.304E-05	0.000E+00
184.284	40.0	0.000E+00	0.000E+00	0.538E-05	0.662E-02	0.128E-02	0.267E-05	0.000E+00
185.572	41.0	0.000E+00	0.000E+00	0.387E-04	0.105E-01	0.123E-02	0.219E-05	0.000E+00
186.860	42.0	0.000E+00	0.000E+00	0.178E-03	0.149E-01	0.111E-02	0.170E-05	0.000E+00
188.149	43.0	0.000E+00	0.000E+00	0.579E-03	0.192E-01	0.953E-03	0.125E-05	0.000E+00
189.437	44.0	0.000E+00	0.000E+00	0.149E-02	0.227E-01	0.781E-03	0.834E-06	0.000E+00
190.726	45.0	0.000E+00	0.000E+00	0.324E-02	0.250E-01	0.616E-03	0.465E-06	0.000E+00
192.014	46.0	0.000E+00	0.000E+00	0.621E-02	0.258E-01	0.472E-03	0.394E-07	0.000E+00
193.303	47.0	0.000E+00	0.000E+00	0.107E-01	0.253E-01	0.351E-03	0.000E+00	0.000E+00
194.591	48.0	0.000E+00	0.000E+00	0.168E-01	0.236E-01	0.255E-03	0.000E+00	0.000E+00
195.880	49.0	0.000E+00	0.126E-07	0.241E-01	0.212E-01	0.182E-03	0.000E+00	0.000E+00
197.168	50.0	0.000E+00	0.183E-06	0.317E-01	0.183E-01	0.127E-03	0.000E+00	0.000E+00
198.457	51.0	0.000E+00	0.156E-05	0.386E-01	0.152E-01	0.871E-04	0.000E+00	0.000E+00
199.745	52.0	0.000E+00	0.872E-05	0.437E-01	0.123E-01	0.587E-04	0.000E+00	0.000E+00
201.034	53.0	0.000E+00	0.351E-04	0.464E-01	0.969E-02	0.389E-04	0.000E+00	0.000E+00
202.322	54.0	0.000E+00	0.108E-03	0.465E-01	0.742E-02	0.252E-04	0.000E+00	0.000E+00
203.610	55.0	0.000E+00	0.271E-03	0.443E-01	0.556E-02	0.160E-04	0.000E+00	0.000E+00
204.899	56.0	0.000E+00	0.576E-03	0.403E-01	0.407E-02	0.992E-05	0.000E+00	0.000E+00
206.187	57.0	0.000E+00	0.108E-02	0.352E-01	0.291E-02	0.591E-05	0.000E+00	0.000E+00
207.476	58.0	0.000E+00	0.182E-02	0.296E-01	0.205E-02	0.318E-05	0.000E+00	0.000E+00
208.764	59.0	0.385E-08	0.280E-02	0.241E-01	0.141E-02	0.156E-05	0.000E+00	0.000E+00
210.053	60.0	0.366E-07	0.397E-02	0.191E-01	0.960E-03	0.000E+00	0.000E+00	0.000E+00
211.341	61.0	0.236E-06	0.522E-02	0.147E-01	0.642E-03	0.000E+00	0.000E+00	0.000E+00
212.630	62.0	0.111E-05	0.639E-02	0.110E-01	0.423E-03	0.000E+00	0.000E+00	0.000E+00
213.918	63.0	0.403E-05	0.732E-02	0.810E-02	0.275E-03	0.000E+00	0.000E+00	0.000E+00
215.207	64.0	0.118E-04	0.792E-02	0.584E-02	0.177E-03	0.000E+00	0.000E+00	0.000E+00
216.495	65.0	0.291E-04	0.812E-02	0.415E-02	0.113E-03	0.000E+00	0.000E+00	0.000E+00
217.784	66.0	0.621E-04	0.796E-02	0.290E-02	0.713E-04	0.000E+00	0.000E+00	0.000E+00
219.072	67.0	0.118E-03	0.748E-02	0.201E-02	0.445E-04	0.000E+00	0.000E+00	0.000E+00
220.360	68.0	0.200E-03	0.679E-02	0.137E-02	0.276E-04	0.000E+00	0.000E+00	0.000E+00
221.649	69.0	0.310E-03	0.597E-02	0.932E-03	0.170E-04	0.000E+00	0.000E+00	0.000E+00
222.937	70.0	0.442E-03	0.511E-02	0.627E-03	0.103E-04	0.000E+00	0.000E+00	0.000E+00
224.226	71.0	0.582E-03	0.427E-02	0.420E-03	0.623E-05	0.000E+00	0.000E+00	0.000E+00
225.514	72.0	0.718E-03	0.350E-02	0.279E-03	0.369E-05	0.000E+00	0.000E+00	0.000E+00
226.803	73.0	0.834E-03	0.281E-02	0.185E-03	0.213E-05	0.000E+00	0.000E+00	0.000E+00
228.091	74.0	0.919E-03	0.222E-02	0.122E-03	0.117E-05	0.000E+00	0.000E+00	0.000E+00
229.380	75.0	0.967E-03	0.173E-02	0.800E-04	0.584E-06	0.000E+00	0.000E+00	0.000E+00
230.668	76.0	0.978E-03	0.133E-02	0.523E-04	0.194E-06	0.000E+00	0.000E+00	0.000E+00
231.957	77.0	0.953E-03	0.101E-02	0.341E-04	0.000E+00	0.000E+00	0.000E+00	0.000E+00
233.245	78.0	0.900E-03	0.760E-03	0.221E-04	0.000E+00	0.000E+00	0.000E+00	0.000E+00
234.534	79.0	0.827E-03	0.566E-03	0.143E-04	0.000E+00	0.000E+00	0.000E+00	0.000E+00
235.822	80.0	0.740E-03	0.419E-03	0.918E-05	0.000E+00	0.000E+00	0.000E+00	0.000E+00
237.110	81.0	0.649E-03	0.307E-03	0.587E-05	0.000E+00	0.000E+00	0.000E+00	0.000E+00
238.399	82.0	0.557E-03	0.224E-03	0.373E-05	0.000E+00	0.000E+00	0.000E+00	0.000E+00
239.687	83.0	0.470E-03	0.162E-03	0.234E-05	0.000E+00	0.000E+00	0.000E+00	0.000E+00
240.976	84.0	0.390E-03	0.117E-03	0.145E-05	0.000E+00	0.000E+00	0.000E+00	0.000E+00
242.264	85.0	0.319E-03	0.836E-04	0.871E-06	0.000E+00	0.000E+00	0.000E+00	0.000E+00
243.553	86.0	0.258E-03	0.596E-04	0.510E-06	0.000E+00	0.000E+00	0.000E+00	0.000E+00
244.841	87.0	0.206E-03	0.423E-04	0.266E-06	0.000E+00	0.000E+00	0.000E+00	0.000E+00
246.130	88.0	0.163E-03	0.299E-04	0.108E-06	0.000E+00	0.000E+00	0.000E+00	0.000E+00
247.418	89.0	0.127E-03	0.210E-04	0.268E-07	0.000E+00	0.000E+00	0.000E+00	0.000E+00
248.707	90.0	0.986E-04	0.147E-04	0.000E+00	0.000E+00	0.000E+00	0.000E+00	0.000E+00
